Data from printrosa_Reflection_00003.txt Node
Date: Thu Apr 11 13:55:28 AEST 2024
User: uqkchene_local
Spectrometer: USB4E02642
Trigger mode: 4
Integration Time (sec): 2.541000E-2
Scans to average: 101
Electric dark correction enabled: true
Nonlinearity correction enabled: false
Boxcar width: 10
XAxis mode: Wavelengths
Number of Pixels in Spectrum: 3648
>>>>>Begin Spectral Data<<<<<
179.217	127.28335482
179.432	128.57142857
179.647	138.79021949
179.862	126.26551566
180.077	121.59344751
180.293	129.58093673
180.508	114.52680256
180.723	122.65240278
180.938	100.9308812
181.153	86.79777881
181.368	78.2446384
181.583	69.46316937
181.798	61.43687691
182.013	57.30914854
182.228	55.41134216
182.443	52.01169447
182.658	52.25919481
182.873	52.28090403
183.088	53.27468231
183.303	51.24180551
183.518	51.19457589
183.733	50.82335613
183.948	49.83828286
184.162	49.60981494
184.377	50.23033944
184.592	50.71340706
184.807	49.47013406
185.022	49.31950328
185.237	48.73192374
185.452	47.83130162
185.667	46.66215664
185.882	46.82068598
186.096	47.59207225
186.311	48.03849445
186.526	47.60970469
186.741	47.26816384
186.956	46.0142537
187.17	45.37269607
187.385	45.17002708
187.6	43.76446931
187.815	44.64856597
188.03	44.12933869
188.244	44.80782833
188.459	44.51528727
188.674	45.04422644
188.889	44.38962774
189.103	43.750684
189.318	44.22116006
189.533	44.62250548
189.747	44.98270785
189.962	45.06309787
190.177	45.53615909
190.391	44.7622932
190.606	43.87678631
190.821	44.18339404
191.035	44.26990268
191.25	44.22301268
191.465	43.5370352
191.679	43.62078074
191.894	42.72777154
192.109	42.23533449
192.323	41.51400462
192.538	41.25776614
192.752	40.6335098
192.967	40.68906591
193.181	39.65398426
193.396	39.58716471
193.611	40.1013268
193.825	39.66982265
194.04	39.436368
194.254	39.68493731
194.469	39.22573839
194.683	39.00610502
194.898	39.89425507
195.112	39.26705389
195.327	38.84467854
195.541	39.77519961
195.756	39.52225785
195.97	41.42808147
196.184	42.49860369
196.399	43.30195548
196.613	44.01523423
196.828	44.610718
197.042	45.63643996
197.257	45.10218076
197.471	44.03280129
197.685	44.78928914
197.9	45.80608245
198.114	46.06727044
198.328	45.70969651
198.543	45.82498229
198.757	44.67021196
198.971	44.44394152
199.186	45.39410877
199.4	44.59260427
199.614	44.82275737
199.829	45.33263022
200.043	44.84535833
200.257	44.56759311
200.471	44.49769703
200.686	44.80634974
200.9	44.93014515
201.114	45.32786524
201.328	44.82321806
201.543	43.75226853
201.757	44.51328625
201.971	44.81584479
202.185	43.4876486
202.399	42.5750632
202.614	42.40380028
202.828	42.76941132
203.042	43.50245565
203.256	43.41699407
203.47	44.18094709
203.684	43.75934936
203.899	44.49184365
204.113	45.65137747
204.327	45.30777407
204.541	45.08024872
204.755	45.64043618
204.969	44.99041601
205.183	43.84384534
205.397	43.80254121
205.611	43.31023441
205.825	43.63495096
206.039	44.16314981
206.253	44.9025849
206.467	45.62035457
206.681	45.70389873
206.895	46.10256484
207.109	45.69076862
207.323	46.21835041
207.537	45.47642354
207.751	45.73933462
207.965	44.83216234
208.179	44.54230551
208.393	43.97160796
208.607	43.39085439
208.821	43.66915871
209.035	43.72213881
209.249	43.40804723
209.463	44.01028632
209.677	44.43185864
209.891	43.43916349
210.104	43.28190691
210.318	42.57499361
210.532	42.74939499
210.746	41.74362271
210.96	41.60436967
211.174	42.90710001
211.387	42.84000092
211.601	43.19109752
211.815	43.00711407
212.029	42.60610685
212.243	42.51688639
212.456	42.95653329
212.67	42.34559465
212.884	42.32746358
213.098	42.40068395
213.311	42.39249164
213.525	42.52713492
213.739	42.51121708
213.953	42.15759209
214.166	41.58214441
214.38	41.72505009
214.594	43.42952342
214.807	43.5778015
215.021	43.05091984
215.235	42.79277388
215.448	42.43652017
215.662	40.56564465
215.876	41.11506705
216.089	40.814924
216.303	40.63272999
216.516	41.02604027
216.73	41.61726301
216.944	42.26814661
217.157	42.96061777
217.371	42.87379528
217.584	42.73820579
217.798	41.59211425
218.011	41.22873743
218.225	40.49057679
218.439	39.78206124
218.652	40.06925748
218.866	40.88131958
219.079	39.09598619
219.293	39.43128722
219.506	41.02796327
219.719	41.04107997
219.933	41.40163557
220.146	42.49754596
220.36	42.365262
220.573	42.97806082
220.787	43.57987674
221	44.25270235
221.214	44.69136463
221.427	44.03114148
221.64	43.66111457
221.854	42.89012108
222.067	42.6575823
222.28	43.79795254
222.494	43.25421626
222.707	44.25586239
222.92	45.09525278
223.134	44.78679419
223.347	43.46643233
223.56	44.76553235
223.774	44.72361809
223.987	44.21462269
224.2	44.13425851
224.414	44.15656033
224.627	44.45703287
224.84	44.46057809
225.053	44.61781535
225.267	45.10753654
225.48	44.0285708
225.693	43.18359211
225.906	43.63158972
226.119	43.37416698
226.333	43.43641452
226.546	42.9181532
226.759	42.30270753
226.972	42.5970368
227.185	42.60253982
227.398	41.85588195
227.612	41.61333805
227.825	42.21852304
228.038	41.28252074
228.251	40.85042494
228.464	40.90902818
228.677	41.81693833
228.89	42.34199389
229.103	41.64109358
229.316	41.13453793
229.529	41.18591116
229.743	40.2584731
229.956	40.71936841
230.169	40.01373916
230.382	40.18840495
230.595	40.25116909
230.808	40.55259704
231.021	40.90267288
231.234	41.58669759
231.447	42.09772043
231.66	42.25783522
231.872	42.30475508
232.085	42.98672765
232.298	43.83333981
232.511	43.89480976
232.724	44.64611584
232.937	43.48070833
233.15	42.40909934
233.363	41.68255637
233.576	41.73855919
233.789	41.38091814
234.002	40.75064572
234.214	40.95253036
234.427	41.65984769
234.64	42.61172121
234.853	41.17056147
235.066	40.79674349
235.279	41.12736332
235.491	41.7850898
235.704	41.34308835
235.917	40.45703193
236.13	40.46978872
236.342	39.98501711
236.555	40.03069072
236.768	38.99220343
236.981	38.3699442
237.193	37.56910769
237.406	37.99409112
237.619	39.40019955
237.832	39.07104182
238.044	39.8107661
238.257	40.33449278
238.47	40.27366976
238.682	40.29892946
238.895	38.29544033
239.108	38.8941699
239.32	39.83575619
239.533	40.71366406
239.746	40.65620421
239.958	39.99398542
240.171	40.15416959
240.383	40.76397266
240.596	40.5287332
240.808	40.96034386
241.021	40.99671871
241.234	40.79936112
241.446	41.43155628
241.659	41.51617293
241.871	41.36623583
242.084	40.35149904
242.296	40.17216337
242.509	39.30049214
242.721	39.2350112
242.934	40.32375136
243.146	39.95181978
243.359	40.64770506
243.571	40.31169437
243.784	39.82391474
243.996	39.89634191
244.208	39.70747771
244.421	39.84732029
244.633	40.04363888
244.846	40.51018261
245.058	41.1243556
245.27	41.01407411
245.483	40.97892258
245.695	41.26864239
245.907	41.69174388
246.12	42.51673007
246.332	42.07655814
246.544	41.74382425
246.757	42.20568713
246.969	42.25191983
247.181	41.84433033
247.394	40.46694999
247.606	40.35241682
247.818	40.7419903
248.03	39.94817099
248.243	40.78670861
248.455	40.18586758
248.667	41.53876548
248.879	41.25077207
249.092	39.98918039
249.304	39.5956147
249.516	38.02002845
249.728	38.44489153
249.94	38.1574392
250.153	38.42325557
250.365	37.65577042
250.577	37.16868907
250.789	38.18028691
251.001	38.74941078
251.213	39.09396735
251.425	39.40355722
251.637	39.00987326
251.85	39.46447372
252.062	39.84437407
252.274	40.06356931
252.486	40.3656653
252.698	39.54110761
252.91	40.18254098
253.122	38.40891625
253.334	38.79269079
253.546	39.73042843
253.758	39.37434968
253.97	40.85410062
254.182	40.67828981
254.394	39.94979119
254.606	40.02029888
254.818	40.56858027
255.03	40.2861091
255.242	39.42459916
255.454	38.93579174
255.666	38.81377576
255.877	38.57454551
256.089	38.21567305
256.301	38.01730345
256.513	37.71482163
256.725	37.90673959
256.937	37.43621438
257.149	37.59645933
257.361	37.93676601
257.572	39.33774834
257.784	39.50797343
257.996	39.15495892
258.208	38.59906155
258.42	38.13588283
258.631	37.98532173
258.843	38.92552037
259.055	38.40268079
259.267	38.36822819
259.479	38.47262418
259.69	38.30893887
259.902	38.93484379
260.114	38.69156106
260.325	38.73437409
260.537	39.69193993
260.749	40.31651792
260.961	40.8258729
261.172	40.67660821
261.384	41.11789857
261.596	41.02184305
261.807	40.89074423
262.019	39.61968466
262.23	38.86992416
262.442	38.98884125
262.654	39.58522434
262.865	39.75278603
263.077	40.2775821
263.288	40.52010898
263.5	40.30284648
263.712	39.84022574
263.923	39.31447395
264.135	39.68156649
264.346	39.08184734
264.558	37.94486751
264.769	37.80524767
264.981	37.56715727
265.192	37.33887814
265.404	36.99949335
265.615	36.73754992
265.827	35.86173536
266.038	36.46852898
266.25	36.04891011
266.461	36.59687715
266.673	36.89392276
266.884	36.52657118
267.095	36.94345132
267.307	36.47975658
267.518	36.09457484
267.73	35.10618517
267.941	35.10361805
268.152	34.42139797
268.364	34.92462221
268.575	35.28953352
268.786	35.50536104
268.998	36.63697775
269.209	36.45226368
269.42	36.66228647
269.632	37.0612772
269.843	37.85429511
270.054	38.16235602
270.265	38.29304432
270.477	37.69255428
270.688	37.14073621
270.899	37.07346907
271.11	37.39631407
271.322	37.91959652
271.533	38.07878416
271.744	37.74306564
271.955	37.43182263
272.166	37.729411
272.378	37.80593725
272.589	38.31485664
272.8	37.60068263
273.011	37.12715666
273.222	37.42678247
273.433	37.37205763
273.644	37.82195163
273.856	37.52494672
274.067	37.06257335
274.278	36.69482413
274.489	35.90711834
274.7	36.33044727
274.911	36.281414
275.122	36.47731776
275.333	35.98513915
275.544	35.58391925
275.755	35.28242718
275.966	35.13605715
276.177	34.66612182
276.388	34.15861004
276.599	34.43833764
276.81	34.68826458
277.021	34.64394429
277.232	35.27939447
277.443	35.01667174
277.654	35.42058919
277.865	35.11145942
278.076	34.13391876
278.287	34.46690101
278.497	34.56450324
278.708	34.02701967
278.919	34.21544788
279.13	34.19224173
279.341	34.2217265
279.552	34.76868385
279.763	35.2723403
279.973	34.67937195
280.184	34.65590342
280.395	34.15257675
280.606	34.53199829
280.817	34.81063936
281.027	34.58201144
281.238	34.27796751
281.449	34.37642939
281.66	34.25793112
281.87	34.53561881
282.081	34.28864645
282.292	34.96751532
282.503	35.11086423
282.713	35.24862015
282.924	34.50556511
283.135	34.13103768
283.345	34.57508446
283.556	34.41989068
283.767	34.57145343
283.977	34.17195066
284.188	34.09307542
284.399	34.95284247
284.609	34.80308515
284.82	35.21925977
285.03	34.80582683
285.241	35.07796379
285.451	35.06328106
285.662	35.19217997
285.873	35.07639181
286.083	35.17293038
286.294	34.84270829
286.504	34.26180205
286.715	33.70662546
286.925	34.21270792
287.136	33.57994871
287.346	33.37549708
287.557	33.61809955
287.767	33.05288227
287.978	33.02164988
288.188	33.32240428
288.399	33.41927167
288.609	33.37856929
288.819	32.55740022
289.03	32.61547444
289.24	32.3633708
289.451	32.32979157
289.661	32.01186226
289.871	31.59357953
290.082	31.59841473
290.292	31.15813461
290.502	30.37364993
290.713	29.88630471
290.923	29.54126214
291.133	29.47920243
291.344	29.1330325
291.554	28.67233549
291.764	28.39375153
291.974	27.4129799
292.185	26.72304658
292.395	26.02533336
292.605	24.87578465
292.815	23.93484914
293.026	22.83733095
293.236	22.47352841
293.446	21.61756401
293.656	20.6617067
293.866	19.98498561
294.077	19.11301613
294.287	18.34077883
294.497	17.35780028
294.707	16.7873709
294.917	16.22304819
295.127	15.89847968
295.337	15.35996098
295.548	14.55375998
295.758	13.83960281
295.968	13.33919022
296.178	12.81751702
296.388	12.47977419
296.598	12.21675767
296.808	11.78359096
297.018	11.54536141
297.228	11.30764657
297.438	10.95715872
297.648	10.7081475
297.858	10.40113453
298.068	10.00564844
298.278	9.76114572
298.488	9.56279943
298.698	9.41935932
298.908	9.27400033
299.118	9.01846039
299.328	8.83916073
299.538	8.67038275
299.748	8.41781208
299.957	8.2100141
300.167	8.00428072
300.377	7.79824958
300.587	7.72124818
300.797	7.57556425
301.007	7.4376452
301.217	7.38447732
301.426	7.21008188
301.636	7.08018221
301.846	6.98414311
302.056	6.855514
302.266	6.77725346
302.475	6.73786245
302.685	6.63604206
302.895	6.57348521
303.105	6.47115386
303.314	6.38791993
303.524	6.32657886
303.734	6.25120789
303.944	6.13701972
304.153	6.06586528
304.363	6.04403501
304.573	5.98067889
304.782	5.96063235
304.992	5.89041331
305.202	5.8611813
305.411	5.79432433
305.621	5.75109866
305.831	5.72304856
306.04	5.68004493
306.25	5.66940487
306.459	5.63312491
306.669	5.61311857
306.878	5.5895323
307.088	5.56216694
307.298	5.53607107
307.507	5.50630736
307.717	5.47345014
307.926	5.45650444
308.136	5.43927783
308.345	5.42977835
308.555	5.42331361
308.764	5.39365843
308.974	5.38160156
309.183	5.3462178
309.392	5.33228452
309.602	5.30204959
309.811	5.2950917
310.021	5.25296515
310.23	5.23795817
310.44	5.22622827
310.649	5.20161065
310.858	5.18767811
311.068	5.15879051
311.277	5.14045007
311.486	5.13392858
311.696	5.12793359
311.905	5.12203913
312.114	5.12561922
312.324	5.10894784
312.533	5.08996234
312.742	5.07377502
312.952	5.07298655
313.161	5.06704179
313.37	5.0626331
313.579	5.06315773
313.789	5.05344877
313.998	5.04605202
314.207	5.03971862
314.416	5.04217263
314.625	5.03072402
314.835	5.02076748
315.044	5.01601647
315.253	5.00955694
315.462	5.00086443
315.671	4.99241317
315.88	4.97981896
316.09	4.96118379
316.299	4.94522233
316.508	4.92400466
316.717	4.91598377
316.926	4.90743313
317.135	4.90226189
317.344	4.8824173
317.553	4.87196153
317.762	4.86979626
317.971	4.86212931
318.18	4.85541342
318.389	4.8529475
318.598	4.83915103
318.807	4.83638508
319.016	4.82869729
319.225	4.8175419
319.434	4.80480553
319.643	4.78737203
319.852	4.78273428
320.061	4.77763062
320.27	4.76912004
320.479	4.75700026
320.688	4.74985568
320.897	4.7416549
321.105	4.73337344
321.314	4.730558
321.523	4.72507477
321.732	4.72180612
321.941	4.71913083
322.15	4.70016236
322.359	4.69474722
322.567	4.68902768
322.776	4.67946061
322.985	4.67504026
323.194	4.66531941
323.403	4.65891529
323.611	4.65514843
323.82	4.64928736
324.029	4.64723577
324.237	4.64358085
324.446	4.63289298
324.655	4.63106974
324.864	4.62867917
325.072	4.62359154
325.281	4.62304686
325.49	4.62046884
325.698	4.61435541
325.907	4.61168513
326.116	4.60665434
326.324	4.60182583
326.533	4.60692737
326.741	4.60506222
326.95	4.60224732
327.159	4.60136165
327.367	4.59990143
327.576	4.59333164
327.784	4.59278146
327.993	4.58688497
328.201	4.58865193
328.41	4.58481248
328.618	4.58109357
328.827	4.58751575
329.035	4.58497526
329.244	4.58814668
329.452	4.58979419
329.661	4.59098623
329.869	4.5887975
330.078	4.59138796
330.286	4.58940416
330.495	4.58856508
330.703	4.58256008
330.911	4.57874483
331.12	4.57359665
331.328	4.57124999
331.537	4.56668579
331.745	4.56449278
331.953	4.56997434
332.162	4.57287476
332.37	4.57557804
332.578	4.5734463
332.787	4.57661771
332.995	4.57347218
333.203	4.5680715
333.411	4.56686245
333.62	4.56138887
333.828	4.55993548
334.036	4.55715008
334.244	4.55584492
334.453	4.55318497
334.661	4.55315429
334.869	4.55231687
335.077	4.55990124
335.285	4.55998436
335.494	4.56115205
335.702	4.56056314
335.91	4.56322869
336.118	4.56336926
336.326	4.56326264
336.534	4.56454927
336.742	4.56397164
336.951	4.56653187
337.159	4.56940321
337.367	4.57170913
337.575	4.57153001
337.783	4.57309063
337.991	4.57484034
338.199	4.58088145
338.407	4.57915786
338.615	4.58479539
338.823	4.58754077
339.031	4.58776617
339.239	4.59137919
339.447	4.59412998
339.655	4.59499515
339.863	4.59942195
340.071	4.59937095
340.279	4.60633655
340.487	4.60717018
340.695	4.60973458
340.903	4.60725417
341.11	4.61391764
341.318	4.61168578
341.526	4.61018691
341.734	4.61656989
341.942	4.62296944
342.15	4.62985816
342.358	4.63443367
342.565	4.63684304
342.773	4.64211412
342.981	4.64431979
343.189	4.64876486
343.397	4.65627431
343.604	4.6642203
343.812	4.6652782
344.02	4.6712522
344.228	4.67593659
344.435	4.68448734
344.643	4.68377702
344.851	4.69383665
345.058	4.70066041
345.266	4.70839465
345.474	4.71348628
345.681	4.72145934
345.889	4.72782028
346.097	4.7368656
346.304	4.74150705
346.512	4.74594154
346.72	4.75535579
346.927	4.76048783
347.135	4.76760046
347.342	4.77447329
347.55	4.7819821
347.758	4.79112358
347.965	4.79745074
348.173	4.80726175
348.38	4.82236457
348.588	4.83582032
348.795	4.84760934
349.003	4.85830378
349.21	4.86903085
349.418	4.88241314
349.625	4.88985931
349.833	4.90290925
350.04	4.91707894
350.247	4.93428436
350.455	4.94075247
350.662	4.95692477
350.87	4.97462114
351.077	4.98503618
351.284	4.99381931
351.492	5.01081821
351.699	5.02542534
351.906	5.04064024
352.114	5.04852259
352.321	5.0614882
352.528	5.06808023
352.736	5.08044356
352.943	5.0915918
353.15	5.10460533
353.358	5.11987326
353.565	5.13253652
353.772	5.14096845
353.979	5.16335665
354.187	5.17376298
354.394	5.18782064
354.601	5.202345
354.808	5.22016202
355.015	5.23656296
355.223	5.2472111
355.43	5.26133167
355.637	5.28447279
355.844	5.29874826
356.051	5.31784642
356.258	5.33511619
356.465	5.35666072
356.673	5.37597002
356.88	5.40157954
357.087	5.42042193
357.294	5.43893863
357.501	5.45583008
357.708	5.47896156
357.915	5.49876632
358.122	5.52341123
358.329	5.5378136
358.536	5.55765839
358.743	5.57677336
358.95	5.59762249
359.157	5.61764399
359.364	5.63685012
359.571	5.65722429
359.778	5.68203241
359.985	5.698158
360.192	5.72366536
360.399	5.74809638
360.606	5.77193446
360.812	5.79404498
361.019	5.81758829
361.226	5.84043476
361.433	5.86146694
361.64	5.88522889
361.847	5.91032654
362.054	5.92918597
362.26	5.95570781
362.467	5.97722811
362.674	6.00290043
362.881	6.02798221
363.088	6.05092723
363.294	6.07658193
363.501	6.10091107
363.708	6.12760817
363.915	6.15301026
364.121	6.1789646
364.328	6.20716206
364.535	6.2327475
364.741	6.25683036
364.948	6.27973809
365.155	6.30782002
365.361	6.32923223
365.568	6.35514129
365.775	6.38482742
365.981	6.41356931
366.188	6.44055303
366.395	6.47452773
366.601	6.50344942
366.808	6.53273105
367.014	6.56209243
367.221	6.59431628
367.427	6.63336867
367.634	6.66852082
367.84	6.70398335
368.047	6.74201279
368.254	6.78534364
368.46	6.82164501
368.667	6.85842481
368.873	6.89876782
369.079	6.93568758
369.286	6.97840792
369.492	7.02121427
369.699	7.07041477
369.905	7.11366549
370.112	7.16112792
370.318	7.20356657
370.524	7.25300485
370.731	7.29716761
370.937	7.3453032
371.144	7.39499096
371.35	7.44889604
371.556	7.50045385
371.763	7.54758238
371.969	7.59744125
372.175	7.65001759
372.381	7.69450509
372.588	7.73978518
372.794	7.79140518
373	7.84885276
373.206	7.89654268
373.413	7.94874301
373.619	8.00128665
373.825	8.05262565
374.031	8.10145276
374.238	8.15849187
374.444	8.21021625
374.65	8.26621377
374.856	8.32223999
375.062	8.38074783
375.268	8.44049738
375.475	8.50398741
375.681	8.56348302
375.887	8.62337964
376.093	8.68890325
376.299	8.74568244
376.505	8.8112846
376.711	8.88119976
376.917	8.95280818
377.123	9.02570843
377.329	9.0974219
377.535	9.17359083
377.741	9.25154832
377.947	9.32939399
378.153	9.41010313
378.359	9.48994227
378.565	9.57354745
378.771	9.65893457
378.977	9.75037785
379.183	9.83893638
379.389	9.9348507
379.595	10.0299656
379.801	10.12814003
380.007	10.2296817
380.213	10.33418737
380.418	10.44242768
380.624	10.5626297
380.83	10.67938204
381.036	10.80103456
381.242	10.91985843
381.448	11.04442612
381.653	11.16567436
381.859	11.30053428
382.065	11.42939834
382.271	11.56182874
382.476	11.694597
382.682	11.83506599
382.888	11.96777666
383.094	12.10366221
383.299	12.23823289
383.505	12.37909417
383.711	12.51680111
383.916	12.65508797
384.122	12.79736413
384.328	12.94009883
384.533	13.08711854
384.739	13.23535812
384.945	13.38396607
385.15	13.53830979
385.356	13.68567156
385.562	13.84345494
385.767	14.00163252
385.973	14.16622976
386.178	14.31972345
386.384	14.47782695
386.589	14.64442765
386.795	14.80971325
387	14.98645051
387.206	15.15992217
387.411	15.33738701
387.617	15.52250859
387.822	15.70853557
388.028	15.89871691
388.233	16.09333605
388.439	16.29084807
388.644	16.49619302
388.85	16.70660916
389.055	16.92572409
389.26	17.15854816
389.466	17.383189
389.671	17.62177508
389.877	17.85579838
390.082	18.09900447
390.287	18.3443871
390.493	18.60218674
390.698	18.86329017
390.903	19.12727997
391.109	19.39679116
391.314	19.65927416
391.519	19.9320467
391.724	20.20171912
391.93	20.47606625
392.135	20.74604243
392.34	21.01792238
392.545	21.29325433
392.751	21.5667415
392.956	21.84122667
393.161	22.11308872
393.366	22.38144974
393.571	22.64242657
393.776	22.90777848
393.982	23.17118223
394.187	23.43227008
394.392	23.70066332
394.597	23.96031609
394.802	24.21718813
395.007	24.47614628
395.212	24.72537815
395.417	24.97182923
395.622	25.2204486
395.827	25.45995988
396.032	25.70009233
396.237	25.93109085
396.442	26.15838358
396.647	26.38783092
396.852	26.6124147
397.057	26.83300368
397.262	27.05708378
397.467	27.27607076
397.672	27.48747569
397.877	27.70353458
398.082	27.91514096
398.287	28.1233705
398.492	28.32837426
398.697	28.52679076
398.902	28.73247332
399.107	28.92746132
399.311	29.12352784
399.516	29.32042562
399.721	29.51510231
399.926	29.70605889
400.131	29.8986149
400.336	30.08716642
400.54	30.27435166
400.745	30.46662171
400.95	30.65329088
401.155	30.84440182
401.359	31.03446606
401.564	31.21894113
401.769	31.40260102
401.974	31.59199768
402.178	31.77302508
402.383	31.95339708
402.588	32.13653037
402.792	32.31708044
402.997	32.5016504
403.202	32.68210866
403.406	32.86336113
403.611	33.0438868
403.815	33.2162812
404.02	33.39515054
404.225	33.57078568
404.429	33.74074872
404.634	33.91648081
404.838	34.08762709
405.043	34.25802139
405.247	34.43361798
405.452	34.59874837
405.656	34.77010879
405.861	34.93253499
406.065	35.09436759
406.27	35.25117479
406.474	35.41263785
406.679	35.57138832
406.883	35.72304201
407.088	35.87273311
407.292	36.01757282
407.497	36.15928438
407.701	36.3022374
407.905	36.44245852
408.11	36.58559848
408.314	36.72280421
408.518	36.85834516
408.723	36.99470792
408.927	37.1227575
409.131	37.25376518
409.336	37.37544588
409.54	37.49355459
409.744	37.61922473
409.949	37.73572022
410.153	37.85628604
410.357	37.96886705
410.561	38.07874848
410.766	38.18477879
410.97	38.29222782
411.174	38.40024139
411.378	38.51588027
411.582	38.62376387
411.787	38.7360183
411.991	38.84528126
412.195	38.94693614
412.399	39.05096633
412.603	39.15338366
412.807	39.24736392
413.011	39.34124286
413.215	39.43586598
413.419	39.53260495
413.624	39.62633574
413.828	39.72823286
414.032	39.82265085
414.236	39.91622881
414.44	40.0082651
414.644	40.10057225
414.848	40.19519398
415.052	40.28568269
415.256	40.3745725
415.46	40.46341129
415.664	40.54415241
415.868	40.62945495
416.072	40.71492555
416.275	40.79684711
416.479	40.87678252
416.683	40.95897139
416.887	41.03878753
417.091	41.13221299
417.295	41.21396741
417.499	41.2986547
417.703	41.37857444
417.906	41.46689892
418.11	41.54377007
418.314	41.61724299
418.518	41.6962812
418.722	41.76946447
418.925	41.84068125
419.129	41.91790753
419.333	41.99538303
419.537	42.07217991
419.74	42.14666197
419.944	42.219821
420.148	42.29217195
420.352	42.3591
420.555	42.42636787
420.759	42.49591047
420.963	42.55872333
421.166	42.62015571
421.37	42.6757394
421.573	42.74532946
421.777	42.80632843
421.981	42.87130535
422.184	42.92825921
422.388	42.98897593
422.591	43.05713781
422.795	43.11620151
422.999	43.17967435
423.202	43.24940388
423.406	43.31035806
423.609	43.36846855
423.813	43.4285616
424.016	43.4886715
424.22	43.54821266
424.423	43.61060182
424.627	43.67007373
424.83	43.72831044
425.033	43.78840494
425.237	43.85058765
425.44	43.91614978
425.644	43.97871001
425.847	44.03100294
426.05	44.08831134
426.254	44.14564866
426.457	44.20133745
426.66	44.25582203
426.864	44.30500424
427.067	44.36453854
427.27	44.41889642
427.474	44.46971287
427.677	44.52203453
427.88	44.57467569
428.084	44.6252493
428.287	44.66889182
428.49	44.72176007
428.693	44.7643978
428.896	44.8135085
429.1	44.86202352
429.303	44.90969663
429.506	44.9525207
429.709	44.99992716
429.912	45.04594724
430.116	45.09527111
430.319	45.14393843
430.522	45.18874738
430.725	45.23939734
430.928	45.28127929
431.131	45.32429248
431.334	45.35974506
431.537	45.39973845
431.74	45.44443832
431.943	45.48410305
432.146	45.53088029
432.349	45.57357614
432.552	45.61956996
432.755	45.65791225
432.958	45.69900519
433.161	45.73406327
433.364	45.77270584
433.567	45.811838
433.77	45.85054511
433.973	45.8918167
434.176	45.92463792
434.379	45.96240294
434.582	45.99229856
434.785	46.02886138
434.988	46.05903477
435.19	46.09879928
435.393	46.13826103
435.596	46.17687586
435.799	46.20901642
436.002	46.23507437
436.205	46.26712439
436.407	46.29186116
436.61	46.31700378
436.813	46.34838436
437.016	46.37783872
437.218	46.40903381
437.421	46.44481567
437.624	46.47279197
437.827	46.50201444
438.029	46.53395519
438.232	46.55839489
438.435	46.58505599
438.637	46.60619352
438.84	46.63703006
439.043	46.66253487
439.245	46.69001349
439.448	46.71405186
439.65	46.74321479
439.853	46.76787931
440.056	46.80095344
440.258	46.83289425
440.461	46.86540761
440.663	46.89568969
440.866	46.92743722
441.068	46.95629672
441.271	46.98555695
441.473	47.01422665
441.676	47.03747531
441.878	47.06271848
442.081	47.08959128
442.283	47.11533575
442.486	47.14021801
442.688	47.16979526
442.89	47.20495639
443.093	47.22942504
443.295	47.25410002
443.498	47.27942454
443.7	47.30515189
443.902	47.32400882
444.105	47.35176635
444.307	47.36653984
444.509	47.38523398
444.712	47.40946457
444.914	47.43409693
445.116	47.45790068
445.319	47.47502551
445.521	47.49563986
445.723	47.5163166
445.925	47.537605
446.128	47.56287022
446.33	47.58828329
446.532	47.60498701
446.734	47.62681938
446.936	47.64489838
447.139	47.66220937
447.341	47.68086165
447.543	47.69662041
447.745	47.71664353
447.947	47.73247711
448.149	47.74657436
448.351	47.76031214
448.553	47.77809457
448.755	47.79815525
448.958	47.80900381
449.16	47.8215897
449.362	47.83350784
449.564	47.85182967
449.766	47.86653067
449.968	47.87674692
450.17	47.89004091
450.372	47.90238222
450.574	47.90576633
450.776	47.92399977
450.978	47.93055785
451.179	47.94076974
451.381	47.95214948
451.583	47.96989228
451.785	47.98212772
451.987	47.99237359
452.189	48.00707961
452.391	48.01809749
452.593	48.0298927
452.795	48.0429762
452.996	48.04890653
453.198	48.05560699
453.4	48.0611138
453.602	48.07273214
453.804	48.07512834
454.005	48.08215241
454.207	48.08593914
454.409	48.09187937
454.611	48.09171691
454.812	48.09832948
455.014	48.10336994
455.216	48.10970613
455.417	48.12077909
455.619	48.12350506
455.821	48.12253776
456.022	48.12157443
456.224	48.12235412
456.426	48.12163394
456.627	48.12744325
456.829	48.12494164
457.031	48.12516911
457.232	48.12908093
457.434	48.13270984
457.635	48.14037972
457.837	48.13831526
458.038	48.14342311
458.24	48.14089493
458.441	48.14221288
458.643	48.13961497
458.844	48.13894623
459.046	48.14102849
459.247	48.13537273
459.449	48.13268423
459.65	48.12442776
459.852	48.11750561
460.053	48.1136502
460.254	48.11931922
460.456	48.11634319
460.657	48.11434301
460.859	48.10872846
461.06	48.10344573
461.261	48.09963661
461.463	48.09633004
461.664	48.08764883
461.865	48.07795336
462.066	48.07275155
462.268	48.06634807
462.469	48.06798367
462.67	48.06155795
462.872	48.0550637
463.073	48.05524883
463.274	48.04028684
463.475	48.03132513
463.676	48.02502746
463.878	48.01985134
464.079	48.01615831
464.28	48.00725754
464.481	47.99117611
464.682	47.98332585
464.883	47.97662022
465.085	47.96898124
465.286	47.96590122
465.487	47.95532569
465.688	47.94541377
465.889	47.93888017
466.09	47.931518
466.291	47.91954544
466.492	47.90694094
466.693	47.89323064
466.894	47.88638463
467.095	47.88138572
467.296	47.86942573
467.497	47.86629609
467.698	47.85653236
467.899	47.84688455
468.1	47.83681625
468.301	47.82706232
468.502	47.81767916
468.703	47.8109823
468.903	47.80223376
469.104	47.79331564
469.305	47.78501815
469.506	47.77108834
469.707	47.76134742
469.908	47.75263209
470.109	47.74439973
470.309	47.73130194
470.51	47.72141509
470.711	47.71605604
470.912	47.70825628
471.112	47.69823594
471.313	47.68589758
471.514	47.67316446
471.715	47.66100209
471.915	47.65595824
472.116	47.64876936
472.317	47.63946185
472.517	47.62895982
472.718	47.62351771
472.919	47.61906835
473.119	47.60543449
473.32	47.59558084
473.521	47.58483229
473.721	47.5746741
473.922	47.56540228
474.122	47.55873732
474.323	47.55103824
474.523	47.54500285
474.724	47.54126613
474.925	47.53350868
475.125	47.52104227
475.326	47.51625778
475.526	47.5126933
475.727	47.5071092
475.927	47.50520289
476.127	47.49398469
476.328	47.48946001
476.528	47.48633404
476.729	47.48053601
476.929	47.47165724
477.13	47.46113495
477.33	47.46295138
477.53	47.45468154
477.731	47.44594527
477.931	47.44151661
478.131	47.43589176
478.332	47.42354656
478.532	47.4156844
478.732	47.41080689
478.933	47.40101806
479.133	47.39211653
479.333	47.38895291
479.533	47.37872461
479.734	47.37151101
479.934	47.36510501
480.134	47.35529674
480.334	47.35288165
480.534	47.34651695
480.735	47.33626885
480.935	47.33143211
481.135	47.32643572
481.335	47.32265118
481.535	47.31009528
481.735	47.30287485
481.935	47.3017407
482.136	47.29656176
482.336	47.29278236
482.536	47.29228612
482.736	47.28449899
482.936	47.27903137
483.136	47.2731441
483.336	47.27204573
483.536	47.26717659
483.736	47.26499007
483.936	47.25681552
484.136	47.24982726
484.336	47.24304302
484.536	47.23494914
484.736	47.22592675
484.936	47.21914361
485.135	47.21367623
485.335	47.20637669
485.535	47.2027586
485.735	47.20030919
485.935	47.19885631
486.135	47.19204754
486.335	47.18838108
486.534	47.18417326
486.734	47.17835871
486.934	47.17628887
487.134	47.16880562
487.334	47.16612241
487.533	47.15827044
487.733	47.14963447
487.933	47.14399768
488.133	47.14056043
488.332	47.13878769
488.532	47.13854005
488.732	47.1364964
488.931	47.13657226
489.131	47.13435984
489.331	47.12929786
489.53	47.1321592
489.73	47.12715168
489.93	47.12281832
490.129	47.11879381
490.329	47.11392461
490.528	47.11097326
490.728	47.10797262
490.928	47.10553214
491.127	47.10258476
491.327	47.09748375
491.526	47.0933122
491.726	47.08993049
491.925	47.08845131
492.125	47.08686231
492.324	47.08394357
492.524	47.08352973
492.723	47.08176497
492.922	47.07729593
493.122	47.07196352
493.321	47.06904288
493.521	47.06907464
493.72	47.06268826
493.919	47.06005843
494.119	47.05839127
494.318	47.05467057
494.517	47.05487414
494.717	47.05160427
494.916	47.04606729
495.115	47.04036513
495.315	47.03878596
495.514	47.04269559
495.713	47.04276795
495.912	47.04470161
496.112	47.04288098
496.311	47.03853622
496.51	47.03949086
496.709	47.03657434
496.908	47.03246213
497.108	47.03413154
497.307	47.03395884
497.506	47.03335228
497.705	47.02995956
497.904	47.0297366
498.103	47.02896128
498.302	47.02669332
498.501	47.02415647
498.701	47.02092872
498.9	47.02383885
499.099	47.02827346
499.298	47.03061334
499.497	47.02912899
499.696	47.02795025
499.895	47.02446631
500.094	47.02023641
500.293	47.01958664
500.492	47.02227297
500.691	47.02020661
500.89	47.0180175
501.088	47.01761055
501.287	47.01391364
501.486	47.01133696
501.685	47.01399985
501.884	47.01620294
502.083	47.01146948
502.282	47.00990879
502.481	47.01065007
502.679	47.01345662
502.878	47.0151447
503.077	47.00986208
503.276	47.0046969
503.475	47.00306805
503.673	47.00525609
503.872	47.00127796
504.071	47.00320644
504.27	47.0047198
504.468	47.00423681
504.667	47.00489086
504.866	47.00660277
505.064	47.00889167
505.263	47.00822805
505.462	47.0117395
505.66	47.01481073
505.859	47.00741806
506.058	47.0049172
506.256	47.00598864
506.455	47.0058532
506.653	47.00480966
506.852	47.0022426
507.05	46.9988635
507.249	47.00053078
507.448	47.00194377
507.646	47.00118344
507.845	46.99641302
508.043	46.99663074
508.242	46.99877907
508.44	46.99200855
508.638	46.99482314
508.837	46.98904045
509.035	46.98721181
509.234	46.98589457
509.432	46.98369313
509.631	46.9798763
509.829	46.97507241
510.027	46.9792803
510.226	46.9784301
510.424	46.97889084
510.622	46.97469159
510.821	46.97468844
511.019	46.97565149
511.217	46.98098919
511.415	46.98082515
511.614	46.98019292
511.812	46.98188143
512.01	46.98331084
512.208	46.98400338
512.407	46.98234905
512.605	46.98893041
512.803	46.99075084
513.001	46.99605187
513.199	46.99289672
513.398	46.99560237
513.596	47.00556237
513.794	47.01001272
513.992	47.01407722
514.19	47.02028391
514.388	47.02486336
514.586	47.03001359
514.784	47.04037878
514.982	47.04961884
515.18	47.05755032
515.378	47.05993974
515.576	47.06787839
515.774	47.07640416
515.972	47.08574681
516.17	47.09600052
516.368	47.10643871
516.566	47.11588413
516.764	47.12524572
516.962	47.13521188
517.16	47.14534951
517.358	47.15986859
517.556	47.16899959
517.754	47.17491036
517.952	47.18271968
518.149	47.19228305
518.347	47.20042539
518.545	47.21310177
518.743	47.22417395
518.941	47.23613714
519.138	47.24841272
519.336	47.2581816
519.534	47.27374092
519.732	47.28571393
519.929	47.29871808
520.127	47.31261608
520.325	47.32519259
520.523	47.33795751
520.72	47.34898739
520.918	47.36133022
521.116	47.37172662
521.313	47.38167995
521.511	47.39418264
521.709	47.40888871
521.906	47.4248231
522.104	47.43809305
522.301	47.45786898
522.499	47.47252457
522.696	47.48380767
522.894	47.49569341
523.092	47.50888906
523.289	47.52079293
523.487	47.5358519
523.684	47.55016247
523.882	47.56375845
524.079	47.5798892
524.276	47.59389189
524.474	47.60906887
524.671	47.62313571
524.869	47.64097602
525.066	47.65555504
525.264	47.67382951
525.461	47.69014205
525.658	47.70694737
525.856	47.72368835
526.053	47.73867658
526.25	47.7593121
526.448	47.77313873
526.645	47.7928887
526.842	47.81112947
527.039	47.83241655
527.237	47.85374484
527.434	47.87294515
527.631	47.8944354
527.828	47.9158749
528.026	47.9369947
528.223	47.95517797
528.42	47.97565944
528.617	47.99322088
528.814	48.01800242
529.012	48.03637828
529.209	48.06303393
529.406	48.08670856
529.603	48.110052
529.8	48.13356841
529.997	48.15261896
530.194	48.17671362
530.391	48.19718145
530.588	48.21964109
530.785	48.24144724
530.982	48.26762429
531.179	48.29093051
531.376	48.30968841
531.573	48.33158764
531.77	48.34909265
531.967	48.3702083
532.164	48.39072532
532.361	48.41475273
532.558	48.43848638
532.755	48.46672121
532.952	48.48836635
533.149	48.51638796
533.346	48.53886193
533.543	48.56434823
533.739	48.5941044
533.936	48.61536979
534.133	48.64369454
534.33	48.66939326
534.527	48.69786222
534.723	48.72744245
534.92	48.7565411
535.117	48.78289863
535.314	48.810931
535.51	48.84459073
535.707	48.8742484
535.904	48.90723645
536.1	48.935582
536.297	48.96317767
536.494	48.99659883
536.69	49.02392817
536.887	49.05068074
537.084	49.08238954
537.28	49.11223041
537.477	49.14274402
537.674	49.16933358
537.87	49.197275
538.067	49.23126611
538.263	49.2647399
538.46	49.29651952
538.656	49.32906467
538.853	49.35946517
539.049	49.38614628
539.246	49.41933818
539.442	49.4509385
539.639	49.47965576
539.835	49.51034276
540.032	49.54215663
540.228	49.57214594
540.424	49.60982567
540.621	49.64178622
540.817	49.67782046
541.014	49.71179819
541.21	49.74351914
541.406	49.77386731
541.603	49.80243426
541.799	49.83688451
541.995	49.86986033
542.191	49.90103931
542.388	49.92931402
542.584	49.95844486
542.78	49.98677112
542.976	50.01439613
543.173	50.04421784
543.369	50.07378089
543.565	50.10183011
543.761	50.13212524
543.957	50.16001357
544.154	50.18756591
544.35	50.21314884
544.546	50.2406103
544.742	50.2613435
544.938	50.28210917
545.134	50.30737878
545.33	50.33240595
545.526	50.35900817
545.722	50.38653114
545.919	50.40625385
546.115	50.4256946
546.311	50.44980952
546.507	50.46948997
546.703	50.4875059
546.899	50.51070222
547.095	50.5332089
547.29	50.55734382
547.486	50.57564577
547.682	50.59923835
547.878	50.619775
548.074	50.6378359
548.27	50.6595669
548.466	50.68752435
548.662	50.7029481
548.858	50.72432384
549.053	50.74659919
549.249	50.7653465
549.445	50.78052008
549.641	50.80039313
549.837	50.81562406
550.032	50.8356981
550.228	50.86179292
550.424	50.8827255
550.62	50.90570343
550.815	50.92667378
551.011	50.94502302
551.207	50.96654579
551.402	50.98707353
551.598	51.00718826
551.794	51.02643582
551.989	51.04373419
552.185	51.06358485
552.381	51.07990117
552.576	51.09761977
552.772	51.12514681
552.967	51.14743336
553.163	51.16983374
553.359	51.19380028
553.554	51.21861633
553.75	51.23994124
553.945	51.26645748
554.141	51.29183905
554.336	51.30925603
554.532	51.33241353
554.727	51.35824475
554.922	51.39340617
555.118	51.41700724
555.313	51.44540769
555.509	51.4751714
555.704	51.50876899
555.899	51.53411115
556.095	51.56473809
556.29	51.60105158
556.486	51.63957695
556.681	51.67251423
556.876	51.70230338
557.071	51.73701871
557.267	51.77667501
557.462	51.81187445
557.657	51.85436345
557.853	51.89855979
558.048	51.94038057
558.243	51.9839242
558.438	52.02759415
558.633	52.07230425
558.829	52.12324306
559.024	52.16705324
559.219	52.22699266
559.414	52.28065091
559.609	52.32875778
559.804	52.38153123
559.999	52.43937541
560.194	52.49586529
560.39	52.55444093
560.585	52.61213833
560.78	52.67379595
560.975	52.73275763
561.17	52.79664566
561.365	52.85783096
561.56	52.92936986
561.755	52.99422424
561.95	53.05618645
562.145	53.13156207
562.34	53.20513144
562.535	53.28512102
562.729	53.36340096
562.924	53.43563345
563.119	53.51133929
563.314	53.58351705
563.509	53.66147542
563.704	53.7480234
563.899	53.83486839
564.093	53.92412468
564.288	54.01830911
564.483	54.10365893
564.678	54.19348909
564.873	54.28757825
565.067	54.38833796
565.262	54.48530048
565.457	54.58329315
565.652	54.67929305
565.846	54.78119105
566.041	54.88979757
566.236	54.98732424
566.43	55.08912833
566.625	55.19866353
566.82	55.30293384
567.014	55.41445398
567.209	55.52785345
567.404	55.64225151
567.598	55.75007763
567.793	55.86133489
567.987	55.97396354
568.182	56.08869087
568.376	56.19610572
568.571	56.31335763
568.765	56.43171324
568.96	56.54656628
569.154	56.66235817
569.349	56.7789747
569.543	56.89704543
569.738	57.01770102
569.932	57.13615
570.127	57.25240886
570.321	57.37043368
570.515	57.49428369
570.71	57.61080602
570.904	57.73103828
571.098	57.850695
571.293	57.96876135
571.487	58.0955019
571.681	58.22778309
571.876	58.35379545
572.07	58.476652
572.264	58.60038423
572.458	58.73046329
572.653	58.86145223
572.847	58.98389066
573.041	59.11070146
573.235	59.23943668
573.43	59.36688392
573.624	59.4951011
573.818	59.62180076
574.012	59.74813419
574.206	59.87805261
574.4	60.01486888
574.594	60.13649157
574.788	60.26340562
574.983	60.39256678
575.177	60.51440545
575.371	60.64341799
575.565	60.76443331
575.759	60.88428844
575.953	61.00627345
576.147	61.13080263
576.341	61.25151288
576.535	61.37180058
576.729	61.48585785
576.923	61.60838568
577.117	61.72570644
577.31	61.83986845
577.504	61.95117821
577.698	62.06847809
577.892	62.18516426
578.086	62.30134665
578.28	62.41108018
578.474	62.51498861
578.668	62.62867519
578.861	62.7380665
579.055	62.84320683
579.249	62.94873868
579.443	63.05224482
579.636	63.15512674
579.83	63.25600648
580.024	63.36134611
580.218	63.45836666
580.411	63.55454626
580.605	63.65215136
580.799	63.74815095
580.992	63.84862623
581.186	63.94692682
581.38	64.04124062
581.573	64.13914918
581.767	64.22787964
581.961	64.3134689
582.154	64.40355345
582.348	64.49483436
582.541	64.58463701
582.735	64.66910552
582.928	64.75584698
583.122	64.84636451
583.315	64.93914553
583.509	65.02596155
583.702	65.11120711
583.896	65.1923375
584.089	65.27050767
584.283	65.35249969
584.476	65.43830227
584.67	65.52066581
584.863	65.60579987
585.056	65.68113175
585.25	65.75868243
585.443	65.83667138
585.636	65.91117481
585.83	65.98843204
586.023	66.06910918
586.216	66.14309886
586.41	66.21723039
586.603	66.29026394
586.796	66.36461269
586.989	66.43583193
587.183	66.49746296
587.376	66.56435715
587.569	66.6363087
587.762	66.69910113
587.955	66.77187951
588.149	66.83957305
588.342	66.90570811
588.535	66.96825394
588.728	67.02870339
588.921	67.08821463
589.114	67.14485649
589.307	67.2045314
589.5	67.26045161
589.693	67.31846545
589.886	67.37900756
590.08	67.42852029
590.273	67.47671569
590.466	67.52424311
590.659	67.57365896
590.852	67.62324551
591.044	67.67056819
591.237	67.72675178
591.43	67.77225874
591.623	67.81041938
591.816	67.8585771
592.009	67.89680136
592.202	67.94113733
592.395	67.98390687
592.588	68.0229726
592.781	68.06518343
592.973	68.10650103
593.166	68.14873168
593.359	68.18153241
593.552	68.22326291
593.745	68.25723635
593.937	68.29068788
594.13	68.3211637
594.323	68.35556794
594.515	68.39496037
594.708	68.42771695
594.901	68.46076639
595.094	68.49566266
595.286	68.52827828
595.479	68.5627135
595.672	68.59382802
595.864	68.62140428
596.057	68.65724984
596.249	68.68004746
596.442	68.70581218
596.635	68.72705741
596.827	68.75618401
597.02	68.78343937
597.212	68.80738065
597.405	68.83926846
597.597	68.85714007
597.79	68.88578226
597.982	68.91004408
598.175	68.94456193
598.367	68.97590546
598.559	68.99609044
598.752	69.02480483
598.944	69.05254625
599.137	69.07193486
599.329	69.09360184
599.521	69.11503423
599.714	69.1370639
599.906	69.16293417
600.098	69.17846813
600.291	69.2024004
600.483	69.22297717
600.675	69.25064637
600.868	69.26830226
601.06	69.28942514
601.252	69.30913356
601.444	69.32431087
601.637	69.34897744
601.829	69.36380072
602.021	69.37667657
602.213	69.39058147
602.405	69.4081523
602.597	69.42521527
602.789	69.43183547
602.982	69.44127148
603.174	69.46150805
603.366	69.47723524
603.558	69.49207116
603.75	69.51462457
603.942	69.52422416
604.134	69.53353032
604.326	69.54557767
604.518	69.55892453
604.71	69.57245989
604.902	69.58819615
605.094	69.59781318
605.286	69.60435662
605.478	69.6218941
605.67	69.6297185
605.862	69.64453893
606.054	69.66548732
606.246	69.67930588
606.437	69.69548665
606.629	69.70573801
606.821	69.72483871
607.013	69.74167305
607.205	69.75958949
607.397	69.77385946
607.588	69.78357076
607.78	69.79179223
607.972	69.805358
608.164	69.82402101
608.355	69.83334584
608.547	69.84467607
608.739	69.85720417
608.93	69.86337586
609.122	69.87361021
609.314	69.88521185
609.505	69.89096426
609.697	69.90302143
609.889	69.92017452
610.08	69.92985584
610.272	69.93271698
610.463	69.9386043
610.655	69.94629517
610.847	69.95266822
611.038	69.95878385
611.23	69.95621672
611.421	69.9668785
611.613	69.97712564
611.804	69.97860639
611.996	69.98921498
612.187	69.99679899
612.379	70.00983411
612.57	70.01846247
612.761	70.02825309
612.953	70.04062145
613.144	70.04946062
613.336	70.06312582
613.527	70.07752156
613.718	70.08906647
613.91	70.09730114
614.101	70.10325061
614.292	70.11995439
614.483	70.12693103
614.675	70.14045971
614.866	70.15467059
615.057	70.16307754
615.248	70.17413527
615.44	70.17459964
615.631	70.1751273
615.822	70.17924587
616.013	70.18920238
616.204	70.19534167
616.396	70.20343975
616.587	70.21259638
616.778	70.21494476
616.969	70.21743102
617.16	70.22635919
617.351	70.23276207
617.542	70.2380466
617.733	70.24434536
617.924	70.24447247
618.115	70.25452353
618.306	70.25152481
618.497	70.25630378
618.688	70.26722869
618.879	70.27411753
619.07	70.28708905
619.261	70.29687564
619.452	70.30769972
619.643	70.31511983
619.834	70.33161158
620.025	70.33586837
620.216	70.3453563
620.407	70.35006647
620.597	70.3549758
620.788	70.35986138
620.979	70.3684115
621.17	70.36382075
621.361	70.37341011
621.551	70.38261902
621.742	70.39449806
621.933	70.41216215
622.124	70.42290191
622.314	70.43649922
622.505	70.44387427
622.696	70.44862332
622.886	70.45605979
623.077	70.45500861
623.268	70.45961739
623.458	70.46917547
623.649	70.48210923
623.84	70.4893701
624.03	70.502812
624.221	70.51283574
624.411	70.52533004
624.602	70.52965703
624.792	70.53992328
624.983	70.55062594
625.173	70.56874175
625.364	70.57554545
625.554	70.58165408
625.745	70.58570707
625.935	70.58436784
626.126	70.58642559
626.316	70.59510707
626.507	70.60489102
626.697	70.61707525
626.887	70.62381942
627.078	70.6316038
627.268	70.63955486
627.458	70.64533981
627.649	70.6617198
627.839	70.66995014
628.029	70.66953512
628.22	70.67503683
628.41	70.68122596
628.6	70.69572913
628.79	70.70824709
628.981	70.71758237
629.171	70.72512967
629.361	70.73443612
629.551	70.74417115
629.741	70.75807142
629.932	70.76680277
630.122	70.77534858
630.312	70.7859994
630.502	70.79779706
630.692	70.79758741
630.882	70.80520338
631.072	70.81486252
631.262	70.82424814
631.452	70.82949877
631.642	70.83437009
631.832	70.84109242
632.022	70.85951188
632.212	70.86296448
632.402	70.87691705
632.592	70.88840574
632.782	70.90156164
632.972	70.90937746
633.162	70.92306076
633.352	70.93273452
633.542	70.93513798
633.732	70.94051718
633.922	70.95091598
634.111	70.96285302
634.301	70.96998264
634.491	70.9741871
634.681	70.98880242
634.871	71.0041631
635.06	71.01245442
635.25	71.02772431
635.44	71.03907956
635.63	71.04429175
635.819	71.05903078
636.009	71.06079301
636.199	71.07576622
636.388	71.08304725
636.578	71.0896454
636.768	71.08797768
636.957	71.09715694
637.147	71.10183612
637.337	71.11344202
637.526	71.13128298
637.716	71.14211864
637.905	71.14871298
638.095	71.15818349
638.284	71.16792483
638.474	71.18858066
638.663	71.2005685
638.853	71.20607516
639.042	71.22762189
639.232	71.23231221
639.421	71.24518215
639.611	71.25784256
639.8	71.26523922
639.99	71.27340343
640.179	71.28529809
640.368	71.28999114
640.558	71.30727867
640.747	71.32071942
640.936	71.33292114
641.126	71.33807088
641.315	71.34608746
641.504	71.35798513
641.694	71.36811989
641.883	71.38697322
642.072	71.39975376
642.261	71.40739676
642.451	71.41204198
642.64	71.42028123
642.829	71.42288486
643.018	71.42629738
643.207	71.44311228
643.397	71.4447579
643.586	71.45500175
643.775	71.46728633
643.964	71.48916311
644.153	71.50321818
644.342	71.51528951
644.531	71.5235839
644.72	71.54358576
644.909	71.55008645
645.098	71.57115396
645.287	71.58270657
645.476	71.59649827
645.665	71.60456416
645.854	71.6109951
646.043	71.61097417
646.232	71.62763531
646.421	71.63469892
646.61	71.64807695
646.799	71.66137866
646.988	71.66493896
647.177	71.67944084
647.365	71.7007638
647.554	71.71256362
647.743	71.72855114
647.932	71.73241395
648.121	71.74586203
648.309	71.74564773
648.498	71.75203628
648.687	71.75127196
648.876	71.76701515
649.064	71.776615
649.253	71.791887
649.442	71.79746949
649.63	71.8054204
649.819	71.81453563
650.008	71.82454766
650.196	71.82947397
650.385	71.84106725
650.574	71.84886351
650.762	71.85984965
650.951	71.87814465
651.139	71.87237735
651.328	71.87614665
651.516	71.88285508
651.705	71.88117598
651.893	71.89265906
652.082	71.89878508
652.27	71.91671236
652.459	71.91987558
652.647	71.93139971
652.836	71.93782701
653.024	71.94720502
653.213	71.94697419
653.401	71.9514932
653.589	71.95993627
653.778	71.97163564
653.966	71.98066672
654.154	71.98860885
654.343	71.99878112
654.531	72.0087754
654.719	72.01881142
654.908	72.031875
655.096	72.04028108
655.284	72.04765762
655.472	72.05279478
655.661	72.06322161
655.849	72.06875594
656.037	72.07204885
656.225	72.08203568
656.413	72.09155818
656.601	72.09981661
656.79	72.1045518
656.978	72.10803587
657.166	72.12180189
657.354	72.13207078
657.542	72.14567025
657.73	72.15421919
657.918	72.16175044
658.106	72.16278097
658.294	72.16803
658.482	72.17840074
658.67	72.19294282
658.858	72.18977008
659.046	72.20345439
659.234	72.21556624
659.422	72.24017251
659.61	72.25349356
659.798	72.27002744
659.986	72.28826222
660.173	72.29834791
660.361	72.30495849
660.549	72.31123483
660.737	72.32352192
660.925	72.33763683
661.113	72.33686374
661.3	72.33773017
661.488	72.34378036
661.676	72.34529748
661.864	72.36348617
662.051	72.38430937
662.239	72.39430896
662.427	72.38749692
662.614	72.39150086
662.802	72.40438294
662.99	72.41741231
663.177	72.42492024
663.365	72.41640632
663.553	72.42776486
663.74	72.4252988
663.928	72.42230793
664.115	72.42126879
664.303	72.43548162
664.49	72.44130516
664.678	72.44416685
664.866	72.44539391
665.053	72.46499877
665.24	72.47560188
665.428	72.47914996
665.615	72.48999341
665.803	72.49108205
665.99	72.49300766
666.178	72.48939738
666.365	72.50322998
666.552	72.507532
666.74	72.51216136
666.927	72.5070222
667.114	72.5185907
667.302	72.52856943
667.489	72.52116727
667.676	72.52848953
667.864	72.5358529
668.051	72.55705474
668.238	72.57135444
668.425	72.58190151
668.613	72.59161199
668.8	72.59604513
668.987	72.59914315
669.174	72.61020238
669.361	72.62535797
669.548	72.62996123
669.736	72.64482007
669.923	72.64798968
670.11	72.66377934
670.297	72.67030726
670.484	72.67839998
670.671	72.6915034
670.858	72.71057761
671.045	72.70668234
671.232	72.7135195
671.419	72.7252323
671.606	72.730024
671.793	72.73658508
671.98	72.73906957
672.167	72.73368534
672.354	72.74542591
672.541	72.75275269
672.728	72.76084868
672.915	72.77233343
673.101	72.77168289
673.288	72.77919972
673.475	72.79295643
673.662	72.79037884
673.849	72.80664487
674.035	72.81193839
674.222	72.82072976
674.409	72.82226408
674.596	72.83376776
674.783	72.83182744
674.969	72.84635665
675.156	72.85465246
675.343	72.86884275
675.529	72.8749192
675.716	72.88393818
675.903	72.89294878
676.089	72.9066205
676.276	72.91427116
676.462	72.92753791
676.649	72.94160034
676.836	72.94159867
677.022	72.95736814
677.209	72.96167162
677.395	72.96354299
677.582	72.97206329
677.768	72.97504693
677.955	72.98090193
678.141	72.99432079
678.328	73.01091421
678.514	73.01091486
678.701	73.01888074
678.887	73.02597632
679.073	73.0355087
679.26	73.03541936
679.446	73.04752676
679.632	73.05881169
679.819	73.07092305
680.005	73.08161377
680.191	73.08948549
680.378	73.08499927
680.564	73.09406417
680.75	73.09814044
680.936	73.10707228
681.123	73.12350155
681.309	73.12986823
681.495	73.14999193
681.681	73.15572385
681.867	73.16882785
682.054	73.16320771
682.24	73.17035254
682.426	73.18282366
682.612	73.19231523
682.798	73.20372664
682.984	73.21797889
683.17	73.23539998
683.356	73.2514398
683.542	73.2569722
683.728	73.25327496
683.914	73.25180674
684.1	73.2539233
684.286	73.26434198
684.472	73.27327896
684.658	73.29091922
684.844	73.29495238
685.03	73.29931874
685.216	73.312202
685.402	73.30772172
685.588	73.3172363
685.774	73.3277451
685.96	73.3495064
686.145	73.35635693
686.331	73.35501929
686.517	73.35698567
686.703	73.35126674
686.889	73.35134511
687.074	73.35482153
687.26	73.36152239
687.446	73.37007125
687.631	73.38999571
687.817	73.39365865
688.003	73.40597262
688.189	73.41421353
688.374	73.40873841
688.56	73.41673344
688.745	73.42152421
688.931	73.42397693
689.117	73.43074715
689.302	73.44229863
689.488	73.45180767
689.673	73.45492307
689.859	73.44404017
690.044	73.43432457
690.23	73.43911164
690.415	73.44691489
690.601	73.46371487
690.786	73.46380463
690.972	73.4615052
691.157	73.45145404
691.343	73.44704929
691.528	73.44440226
691.713	73.44595178
691.899	73.43754903
692.084	73.44214178
692.269	73.44549576
692.455	73.43282889
692.64	73.4228621
692.825	73.41265084
693.011	73.40227729
693.196	73.38880011
693.381	73.3753017
693.566	73.37534331
693.752	73.37797922
693.937	73.3862453
694.122	73.37554099
694.307	73.37174292
694.492	73.35994502
694.678	73.35191556
694.863	73.34910574
695.048	73.35519549
695.233	73.33719234
695.418	73.31060575
695.603	73.31726023
695.788	73.31245109
695.973	73.30821131
696.158	73.30608176
696.343	73.2998251
696.528	73.29789464
696.713	73.30418522
696.898	73.30504167
697.083	73.30578292
697.268	73.31179311
697.453	73.29150662
697.638	73.2918916
697.823	73.28144532
698.008	73.28158258
698.192	73.26427968
698.377	73.26255188
698.562	73.25660015
698.747	73.25861977
698.932	73.24288971
699.117	73.24383205
699.301	73.24863051
699.486	73.23004426
699.671	73.21390408
699.856	73.20221902
700.04	73.18885479
700.225	73.18524793
700.41	73.17576585
700.594	73.14904893
700.779	73.14453256
700.964	73.13009835
701.148	73.10514496
701.333	73.09725238
701.517	73.07848969
701.702	73.06412179
701.887	73.04636301
702.071	73.03995676
702.256	73.02606316
702.44	73.0166854
702.625	72.99253264
702.809	72.98079774
702.994	72.96718766
703.178	72.94072577
703.362	72.91946024
703.547	72.91037161
703.731	72.88918779
703.916	72.8774305
704.1	72.86355611
704.284	72.85411436
704.469	72.84887837
704.653	72.81728299
704.837	72.81036807
705.022	72.80018166
705.206	72.7846619
705.39	72.77548985
705.575	72.76130489
705.759	72.74345068
705.943	72.73117499
706.127	72.69323689
706.311	72.66719386
706.496	72.65354829
706.68	72.63621032
706.864	72.62446761
707.048	72.61653381
707.232	72.61276386
707.416	72.6012924
707.6	72.59017222
707.785	72.57194195
707.969	72.54353499
708.153	72.51641072
708.337	72.49195372
708.521	72.47824539
708.705	72.45342852
708.889	72.43290334
709.073	72.41085368
709.257	72.39337156
709.441	72.37783975
709.624	72.37084002
709.808	72.35590347
709.992	72.36625772
710.176	72.35305342
710.36	72.33098493
710.544	72.31299747
710.728	72.29740717
710.912	72.28300363
711.095	72.26221366
711.279	72.24938568
711.463	72.22648886
711.647	72.2114026
711.83	72.19992497
712.014	72.19235152
712.198	72.17185275
712.382	72.1541388
712.565	72.13465157
712.749	72.12255691
712.933	72.11221371
713.116	72.08674455
713.3	72.05376458
713.483	72.026999
713.667	72.00206702
713.851	71.9672972
714.034	71.94480451
714.218	71.92214423
714.401	71.90213964
714.585	71.87612431
714.768	71.86671935
714.952	71.83534677
715.135	71.7829687
715.319	71.76087448
715.502	71.73315476
715.686	71.71700439
715.869	71.68865498
716.052	71.66542783
716.236	71.64340841
716.419	71.62455456
716.602	71.5940165
716.786	71.56211237
716.969	71.54639876
717.152	71.53391285
717.336	71.50872824
717.519	71.47877902
717.702	71.45023574
717.885	71.43323036
718.069	71.41649117
718.252	71.38713744
718.435	71.36235471
718.618	71.31934751
718.801	71.28539344
718.985	71.28436305
719.168	71.25443829
719.351	71.23500768
719.534	71.2027726
719.717	71.18147452
719.9	71.15336219
720.083	71.12228076
720.266	71.08214758
720.449	71.0574863
720.632	71.03794915
720.815	71.00768828
720.998	70.98143756
721.181	70.95057146
721.364	70.92664076
721.547	70.90155658
721.73	70.86734101
721.913	70.82129068
722.096	70.79704034
722.279	70.76695282
722.461	70.74565585
722.644	70.72674541
722.827	70.6926782
723.01	70.66586545
723.193	70.62941151
723.376	70.60191821
723.558	70.57148436
723.741	70.54835896
723.924	70.53771351
724.107	70.51216165
724.289	70.49164679
724.472	70.46056021
724.655	70.43041303
724.837	70.4045683
725.02	70.37620291
725.203	70.35093962
725.385	70.32605515
725.568	70.29842375
725.75	70.28059442
725.933	70.25941109
726.115	70.21831836
726.298	70.18844414
726.481	70.1578457
726.663	70.14004139
726.845	70.10376903
727.028	70.07407361
727.21	70.05372785
727.393	70.03025454
727.575	69.99967132
727.758	69.96556337
727.94	69.94735505
728.122	69.91075357
728.305	69.88305786
728.487	69.86642889
728.67	69.83804401
728.852	69.81355663
729.034	69.77919032
729.216	69.75270761
729.399	69.73426931
729.581	69.73017618
729.763	69.68582349
729.945	69.67730273
730.128	69.6570825
730.31	69.64952165
730.492	69.6175882
730.674	69.60911929
730.856	69.60218175
731.039	69.57343745
731.221	69.54884611
731.403	69.53655679
731.585	69.51743551
731.767	69.48745342
731.949	69.47048781
732.131	69.45325752
732.313	69.42148561
732.495	69.40255843
732.677	69.38903742
732.859	69.37229128
733.041	69.35659621
733.223	69.33281021
733.405	69.29932276
733.587	69.29550939
733.769	69.27397767
733.951	69.2653223
734.132	69.24336984
734.314	69.23253275
734.496	69.21428655
734.678	69.18919644
734.86	69.17110471
735.042	69.15863739
735.223	69.14323959
735.405	69.12619578
735.587	69.12227805
735.769	69.11427027
735.95	69.09638256
736.132	69.0803861
736.314	69.07935678
736.495	69.05745283
736.677	69.04986603
736.859	69.04140742
737.04	69.03690184
737.222	69.01575783
737.403	69.00090234
737.585	68.99857624
737.767	68.97194904
737.948	68.95568237
738.13	68.93259529
738.311	68.92402309
738.493	68.90260869
738.674	68.88658319
738.856	68.87120247
739.037	68.84911891
739.219	68.83146662
739.4	68.81940372
739.581	68.80234116
739.763	68.79353964
739.944	68.78339534
740.125	68.75797155
740.307	68.75370338
740.488	68.7398433
740.669	68.71355859
740.851	68.69328028
741.032	68.69191338
741.213	68.67727005
741.395	68.66449936
741.576	68.64944286
741.757	68.63650693
741.938	68.62597471
742.119	68.61627845
742.301	68.60788553
742.482	68.6104742
742.663	68.59861214
742.844	68.59831929
743.025	68.59099139
743.206	68.57000671
743.387	68.56027963
743.568	68.54650265
743.749	68.54063789
743.93	68.53442406
744.111	68.52237482
744.292	68.50847399
744.473	68.51092671
744.654	68.50390976
744.835	68.49641859
745.016	68.49997859
745.197	68.4873572
745.378	68.47928832
745.559	68.4784688
745.74	68.47899954
745.921	68.47432431
746.102	68.47099092
746.282	68.45998462
746.463	68.44699188
746.644	68.44127987
746.825	68.43828084
747.006	68.43199615
747.186	68.42858802
747.367	68.42314593
747.548	68.41826004
747.728	68.41951655
747.909	68.41145774
748.09	68.40454635
748.27	68.38767544
748.451	68.38205813
748.632	68.37713618
748.812	68.35993732
748.993	68.35553079
749.173	68.36107021
749.354	68.36153018
749.535	68.3535966
749.715	68.34605133
749.896	68.34145381
750.076	68.32832503
750.257	68.33349838
750.437	68.32682463
750.618	68.3266427
750.798	68.33224604
750.978	68.32091781
751.159	68.32006366
751.339	68.32028913
751.52	68.29725469
751.7	68.30190683
751.88	68.31349704
752.061	68.33098947
752.241	68.33469636
752.421	68.32492829
752.601	68.32516568
752.782	68.32385473
752.962	68.32304717
753.142	68.31007365
753.322	68.30557842
753.503	68.29604091
753.683	68.29799943
753.863	68.3027399
754.043	68.3099411
754.223	68.31276852
754.403	68.30548589
754.583	68.30868789
754.764	68.31708028
754.944	68.32382606
755.124	68.31631914
755.304	68.33815237
755.484	68.33437744
755.664	68.33415815
755.844	68.31624757
756.024	68.31088736
756.204	68.31868962
756.384	68.32661064
756.564	68.31941682
756.743	68.31456421
756.923	68.31661921
757.103	68.32448913
757.283	68.33243458
757.463	68.3293284
757.643	68.34335766
757.823	68.33798027
758.002	68.33316676
758.182	68.332702
758.362	68.3203246
758.542	68.32361808
758.721	68.31074921
758.901	68.30511957
759.081	68.29633184
759.261	68.28561357
759.44	68.27985365
759.62	68.29136725
759.8	68.28887363
759.979	68.27820478
760.159	68.26744196
760.338	68.27560989
760.518	68.27917456
760.698	68.28829946
760.877	68.29733087
761.057	68.3002018
761.236	68.30754958
761.416	68.28873982
761.595	68.27654744
761.775	68.28471188
761.954	68.27792514
762.133	68.279894
762.313	68.27216742
762.492	68.27484635
762.672	68.28648517
762.851	68.28186371
763.03	68.2967227
763.21	68.30234009
763.389	68.30807714
763.568	68.29054389
763.748	68.28763313
763.927	68.30567765
764.106	68.30926831
764.286	68.30578887
764.465	68.29441552
764.644	68.28321928
764.823	68.28880108
765.002	68.28438979
765.182	68.29261847
765.361	68.28653432
765.54	68.28682737
765.719	68.29069939
765.898	68.28132204
766.077	68.28504587
766.256	68.29044254
766.435	68.28447018
766.614	68.28114317
766.793	68.2684778
766.972	68.26230805
767.151	68.24474949
767.33	68.26012805
767.509	68.27223058
767.688	68.25770885
767.867	68.25943835
768.046	68.26176251
768.225	68.26056794
768.404	68.26426753
768.583	68.26412765
768.762	68.2531106
768.94	68.2424249
769.119	68.25671805
769.298	68.25079281
769.477	68.25200336
769.656	68.25999779
769.834	68.27070443
770.013	68.26381081
770.192	68.26339327
770.37	68.27474042
770.549	68.28304966
770.728	68.28060533
770.906	68.29062376
771.085	68.28713286
771.264	68.28798054
771.442	68.28463104
771.621	68.28149454
771.799	68.28134501
771.978	68.28873474
772.157	68.29585998
772.335	68.28447689
772.514	68.30350559
772.692	68.31681159
772.871	68.31787475
773.049	68.30954785
773.228	68.31234741
773.406	68.31587217
773.584	68.29446427
773.763	68.2906642
773.941	68.3029891
774.119	68.29164034
774.298	68.29607085
774.476	68.30360386
774.655	68.30836373
774.833	68.31816932
775.011	68.32019421
775.189	68.33950111
775.368	68.34359999
775.546	68.34459307
775.724	68.35014427
775.902	68.33910928
776.08	68.34507839
776.259	68.34699608
776.437	68.35201631
776.615	68.35981725
776.793	68.37691529
776.971	68.37780234
777.149	68.38392385
777.327	68.40074903
777.505	68.40741259
777.683	68.4041772
777.861	68.41951666
778.04	68.41457426
778.218	68.41907343
778.395	68.41986605
778.573	68.41913326
778.751	68.41420954
778.929	68.402428
779.107	68.3960691
779.285	68.39142441
779.463	68.38707453
779.641	68.39191226
779.819	68.38828115
779.997	68.38288637
780.174	68.37433892
780.352	68.36241873
780.53	68.35550566
780.708	68.35281177
780.886	68.34865572
781.063	68.34263152
781.241	68.35588793
781.419	68.35529626
781.596	68.35633285
781.774	68.35508089
781.952	68.34106414
782.129	68.33445947
782.307	68.33780017
782.485	68.33233095
782.662	68.33185676
782.84	68.32793156
783.017	68.33598902
783.195	68.34708486
783.372	68.34492191
783.55	68.34635669
783.727	68.33688134
783.905	68.33857297
784.082	68.341979
784.26	68.33982356
784.437	68.33876162
784.615	68.34520371
784.792	68.33408741
784.969	68.31621576
785.147	68.31184194
785.324	68.30111775
785.501	68.31198648
785.679	68.32177278
785.856	68.33192332
786.033	68.32388749
786.211	68.33207529
786.388	68.33509662
786.565	68.34093284
786.742	68.33629924
786.92	68.32437649
787.097	68.32162343
787.274	68.31792265
787.451	68.32591166
787.628	68.3286411
787.805	68.33095365
787.982	68.32672173
788.16	68.32223625
788.337	68.31532712
788.514	68.32950861
788.691	68.33057105
788.868	68.32339836
789.045	68.33695002
789.222	68.32982767
789.399	68.33897341
789.576	68.32563153
789.753	68.32930034
789.93	68.33536539
790.106	68.34056164
790.283	68.33777795
790.46	68.3246578
790.637	68.32364746
790.814	68.33436647
790.991	68.33463759
791.168	68.32967014
791.344	68.32194297
791.521	68.31181422
791.698	68.31855576
791.875	68.32187049
792.051	68.31891079
792.228	68.32675425
792.405	68.34782353
792.581	68.35021542
792.758	68.34902825
792.935	68.35645257
793.111	68.36606359
793.288	68.36467719
793.465	68.35357491
793.641	68.35984012
793.818	68.33195
793.994	68.34408422
794.171	68.36654433
794.347	68.36488187
794.524	68.36536674
794.7	68.38590824
794.877	68.39783226
795.053	68.41100583
795.23	68.41269745
795.406	68.43289768
795.583	68.42739126
795.759	68.42421705
795.935	68.40633314
796.112	68.38489684
796.288	68.38433074
796.464	68.35374998
796.641	68.34130491
796.817	68.31973232
796.993	68.33285839
797.169	68.34673415
797.346	68.3216135
797.522	68.33253498
797.698	68.32159418
797.874	68.31378982
798.051	68.32437902
798.227	68.31554392
798.403	68.31232521
798.579	68.29987731
798.755	68.30312748
798.931	68.31686316
799.107	68.29755412
799.283	68.29341713
799.459	68.28962703
799.635	68.30098677
799.811	68.32285949
799.987	68.33482511
800.163	68.36459307
800.339	68.38154484
800.515	68.39108937
800.691	68.38419658
800.867	68.38194753
801.043	68.39544417
801.219	68.41797485
801.395	68.4034018
801.571	68.40763758
801.746	68.39256969
801.922	68.38440574
802.098	68.38235307
802.274	68.39788632
802.45	68.38270933
802.625	68.37011053
802.801	68.36955038
802.977	68.36834045
803.152	68.3810515
803.328	68.38628955
803.504	68.36903763
803.679	68.35303308
803.855	68.34577444
804.031	68.33008748
804.206	68.31728594
804.382	68.33148315
804.557	68.33720416
804.733	68.34123218
804.909	68.32934086
805.084	68.33941687
805.26	68.32193513
805.435	68.34034996
805.61	68.36593524
805.786	68.34398615
805.961	68.33749128
806.137	68.34503275
806.312	68.34051375
806.488	68.33593296
806.663	68.36007859
806.838	68.3447194
807.014	68.34128874
807.189	68.33683528
807.364	68.3337035
807.54	68.32765078
807.715	68.33186609
807.89	68.33367086
808.065	68.30473646
808.241	68.28636026
808.416	68.26458064
808.591	68.27207089
808.766	68.2860525
808.941	68.29608895
809.116	68.29878572
809.291	68.26003185
809.467	68.26478249
809.642	68.25178869
809.817	68.2350471
809.992	68.2334961
810.167	68.20423358
810.342	68.18891669
810.517	68.20297685
810.692	68.20610144
810.867	68.20265192
811.042	68.21219738
811.217	68.21681483
811.392	68.24168093
811.567	68.24653307
811.741	68.23029738
811.916	68.23517694
812.091	68.25149492
812.266	68.22293085
812.441	68.20923703
812.616	68.20130353
812.79	68.19852066
812.965	68.22432446
813.14	68.22070942
813.315	68.21395907
813.489	68.23531468
813.664	68.23351726
813.839	68.23903605
814.013	68.24568762
814.188	68.23560996
814.363	68.20637775
814.537	68.2126666
814.712	68.2338149
814.887	68.23813576
815.061	68.22609812
815.236	68.20431815
815.41	68.24437546
815.585	68.21703537
815.759	68.2284138
815.934	68.23585173
816.108	68.24118165
816.283	68.25893874
816.457	68.24699978
816.631	68.2494159
816.806	68.25520367
816.98	68.2375452
817.155	68.21577821
817.329	68.21736933
817.503	68.246577
817.678	68.25306175
817.852	68.24074358
818.026	68.27650188
818.201	68.3067254
818.375	68.30423286
818.549	68.26312552
818.723	68.24094474
818.897	68.25258642
819.072	68.22903858
819.246	68.25960392
819.42	68.21849105
819.594	68.21014363
819.768	68.21815622
819.942	68.20721051
820.116	68.18694066
820.29	68.19332017
820.465	68.18055537
820.639	68.21812287
820.813	68.20454113
820.987	68.21638566
821.161	68.18140692
821.335	68.17312385
821.509	68.18184815
821.682	68.18415357
821.856	68.15269263
822.03	68.14939473
822.204	68.17706297
822.378	68.17269756
822.552	68.1483121
822.726	68.15135484
822.9	68.18301324
823.073	68.19293946
823.247	68.18615974
823.421	68.15538296
823.595	68.14948037
823.768	68.13715444
823.942	68.11683429
824.116	68.12377754
824.289	68.1146988
824.463	68.14286311
824.637	68.14772472
824.81	68.15460963
824.984	68.16022599
825.158	68.16440212
825.331	68.12960566
825.505	68.13733516
825.678	68.16257686
825.852	68.17829064
826.025	68.15770991
826.199	68.1698863
826.372	68.15672567
826.546	68.09391307
826.719	68.09396472
826.893	68.12524372
827.066	68.14101428
827.24	68.1454126
827.413	68.15899706
827.586	68.16780253
827.76	68.14805423
827.933	68.11525368
828.106	68.13490143
828.28	68.08932813
828.453	68.09425982
828.626	68.10422721
828.799	68.11912551
828.973	68.13338969
829.146	68.15228495
829.319	68.12948187
829.492	68.1409987
829.665	68.18564405
829.839	68.22170599
830.012	68.25357349
830.185	68.26239962
830.358	68.28053314
830.531	68.28111544
830.704	68.24175469
830.877	68.26867227
831.05	68.26600996
831.223	68.22709272
831.396	68.27118531
831.569	68.28856992
831.742	68.25814173
831.915	68.27315921
832.088	68.27160826
832.261	68.23253966
832.434	68.25518376
832.607	68.23981826
832.779	68.19309853
832.952	68.1450478
833.125	68.10659993
833.298	68.08476538
833.471	68.06458992
833.643	68.05357856
833.816	68.0895215
833.989	68.10687244
834.162	68.09235664
834.334	68.1395626
834.507	68.09414808
834.68	68.13697119
834.852	68.19021331
835.025	68.17324385
835.198	68.1811088
835.37	68.18584663
835.543	68.18166508
835.715	68.19319672
835.888	68.19203143
836.061	68.15080565
836.233	68.17587287
836.406	68.17936542
836.578	68.21748019
836.751	68.21537631
836.923	68.23258625
837.095	68.18917336
837.268	68.16522423
837.44	68.14778078
837.613	68.08665821
837.785	68.09638978
837.957	68.0807633
838.13	68.09818992
838.302	68.06682347
838.474	68.07522267
838.647	68.0743436
838.819	68.09176638
838.991	68.04247057
839.163	68.05124259
839.336	68.01062135
839.508	67.98739009
839.68	67.96374217
839.852	67.92074828
840.024	67.89056712
840.196	67.9044874
840.368	67.89373141
840.541	67.83096537
840.713	67.83186795
840.885	67.85276765
841.057	67.86861261
841.229	67.88681495
841.401	67.88374163
841.573	67.91574087
841.745	67.89229701
841.917	67.88630015
842.089	67.847182
842.261	67.8149901
842.432	67.77859333
842.604	67.79265422
842.776	67.82621338
842.948	67.87209347
843.12	67.91321894
843.292	67.94204358
843.464	67.98012622
843.635	68.01833092
843.807	67.99465395
843.979	68.06878288
844.151	68.03583638
844.322	68.04237451
844.494	68.0419941
844.666	67.97484872
844.837	68.00553391
845.009	67.95902542
845.181	67.8909806
845.352	67.92611016
845.524	67.84904521
845.695	67.87011243
845.867	67.91314826
846.039	67.93938768
846.21	67.96494688
846.382	67.95986909
846.553	67.9383154
846.725	67.93277476
846.896	67.90493907
847.068	67.93478461
847.239	67.93657977
847.41	67.90124072
847.582	67.8064865
847.753	67.90791386
847.925	67.8992447
848.096	67.92614515
848.267	67.97884359
848.439	67.95104765
848.61	67.97678131
848.781	68.01344989
848.952	68.01687537
849.124	68.10755674
849.295	68.13274005
849.466	68.09533704
849.637	68.08255443
849.808	68.11820609
849.98	68.04684509
850.151	68.06372405
850.322	68.04145995
850.493	68.03780715
850.664	67.99908332
850.835	68.0104339
851.006	67.98252415
851.177	68.00382325
851.348	67.95441693
851.519	67.93095559
851.69	67.89962044
851.861	67.89753561
852.032	67.89259637
852.203	67.93512
852.374	67.93154966
852.545	67.94868546
852.716	67.94508235
852.887	67.93984441
853.057	67.91494265
853.228	67.94891946
853.399	67.94066009
853.57	67.99248745
853.741	67.96462382
853.911	68.00002091
854.082	68.04930523
854.253	68.07496469
854.424	68.03178786
854.594	68.17280507
854.765	68.20584982
854.936	68.24899992
855.106	68.30628965
855.277	68.30492422
855.447	68.26909787
855.618	68.32081804
855.789	68.26804407
855.959	68.29734176
856.13	68.29653676
856.3	68.22193411
856.471	68.16671881
856.641	68.20338764
856.812	68.15299879
856.982	68.12917588
857.153	68.15019176
857.323	68.16203763
857.493	68.12144327
857.664	68.15964823
857.834	68.08308697
858.004	68.13250452
858.175	68.11454185
858.345	68.1039451
858.515	68.03002431
858.686	68.02704
858.856	68.0089128
859.026	68.07577834
859.196	67.96316724
859.367	67.98090796
859.537	67.95839167
859.707	67.8823338
859.877	67.96195424
860.047	68.02359267
860.217	67.99614552
860.387	67.97788579
860.558	67.97121363
860.728	67.95155846
860.898	67.95809726
861.068	67.92886754
861.238	67.84416592
861.408	67.80804395
861.578	67.76799426
861.748	67.7078809
861.918	67.76236612
862.088	67.82763918
862.257	67.81279374
862.427	67.84940838
862.597	67.81812848
862.767	67.92924137
862.937	67.89893066
863.107	67.88841359
863.277	67.84925221
863.446	67.82470298
863.616	67.82284227
863.786	67.83425535
863.956	67.80702112
864.125	67.82583145
864.295	67.83716901
864.465	67.88832899
864.634	67.97396425
864.804	68.0025277
864.974	68.05341945
865.143	68.06504731
865.313	68.02299245
865.482	68.02616316
865.652	68.10454595
865.822	68.07499251
865.991	67.94811016
866.161	67.8807824
866.33	67.85805227
866.5	67.89978987
866.669	67.88767781
866.838	67.83400509
867.008	67.69990925
867.177	67.60195333
867.347	67.57768232
867.516	67.64729844
867.685	67.52999704
867.855	67.48723385
868.024	67.46489695
868.193	67.37649181
868.363	67.36269243
868.532	67.3666412
868.701	67.32869157
868.87	67.34084868
869.04	67.15913001
869.209	67.02513669
869.378	67.02596774
869.547	67.11715927
869.716	67.13909615
869.885	67.12101146
870.055	67.10991747
870.224	67.09085459
870.393	67.25642854
870.562	67.37043454
870.731	67.40039425
870.9	67.41457252
871.069	67.32621168
871.238	67.2619293
871.407	67.21107859
871.576	67.1557572
871.745	67.25629596
871.914	67.28802007
872.083	67.32960154
872.251	67.4646761
872.42	67.32618492
872.589	67.34705765
872.758	67.3066021
872.927	67.43698102
873.096	67.3498165
873.264	67.42783807
873.433	67.30365378
873.602	67.37234524
873.771	67.3394317
873.939	67.15400366
874.108	67.12814548
874.277	67.01225285
874.445	67.16599814
874.614	67.27409022
874.783	67.4471184
874.951	67.50138912
875.12	67.45954741
875.288	67.39802875
875.457	67.34550169
875.625	67.25499525
875.794	67.07120876
875.962	67.09715757
876.131	67.15536674
876.299	67.25118383
876.468	67.10844589
876.636	67.19944849
876.805	67.2077643
876.973	67.41677939
877.141	67.40255907
877.31	67.44976512
877.478	67.63050242
877.647	67.64080032
877.815	67.78065638
877.983	67.53036456
878.151	67.37162745
878.32	67.45297313
878.488	67.43818642
878.656	67.4816198
878.824	67.49954606
878.992	67.35759653
879.161	67.37565459
879.329	67.38263834
879.497	67.40905772
879.665	67.31862563
879.833	67.40932912
880.001	67.46335609
880.169	67.39990051
880.337	67.30515209
880.505	67.20140248
880.673	67.06099425
880.841	67.06562187
881.009	67.08085931
881.177	67.02747695
881.345	66.9240021
881.513	67.01631303
881.681	66.94942682
881.849	66.78253637
882.017	66.80651878
882.185	66.83665544
882.352	66.5817237
882.52	66.78948963
882.688	66.7730256
882.856	66.74850283
883.024	66.97131593
883.191	67.26450674
883.359	67.04406965
883.527	67.06021846
883.694	67.07259958
883.862	67.00924063
884.03	66.96504613
884.197	66.95336987
884.365	66.9892472
884.533	66.96727849
884.7	67.05016379
884.868	67.26239954
885.035	67.1109878
885.203	67.12550864
885.37	67.19436582
885.538	67.1243059
885.705	67.12165468
885.873	67.42014636
886.04	67.23816008
886.208	67.35092159
886.375	67.5035698
886.542	67.14420971
886.71	66.75823716
886.877	66.92033564
