Data from gv_q_Reflection_00002.txt Node
Date: Thu Nov 23 12:47:32 AEST 2023
User: uqkchene_local
Spectrometer: USB4E02642
Trigger mode: 4
Integration Time (sec): 2.340000E-1
Scans to average: 10
Electric dark correction enabled: true
Nonlinearity correction enabled: false
Boxcar width: 10
XAxis mode: Wavelengths
Number of Pixels in Spectrum: 3648
>>>>>Begin Spectral Data<<<<<
179.217	395.91623037
179.432	561.40350877
179.647	236.12256924
179.862	196.89839572
180.077	184.25047438
180.293	280.47182176
180.508	513.31403763
180.723	430.59701493
180.938	989.55916473
181.153	-751.71232877
181.368	-632.76595745
181.583	-271.99211045
181.798	-148.22695035
182.013	-90.31281534
182.228	-17.36677116
182.443	5.93485051
182.658	8.39865622
182.873	15.29118655
183.088	12.77997365
183.303	13.99249061
183.518	20.16148183
183.733	11.77373383
183.948	14.7219193
184.162	11.27069619
184.377	9.17482001
184.592	2.71121217
184.807	11.08175062
185.022	10.91272895
185.237	10.79157589
185.452	16.43205575
185.667	20.46190677
185.882	23.42588971
186.096	22.52797893
186.311	19.60343688
186.526	24.49277284
186.741	21.18655241
186.956	23.57306706
187.17	24.2369338
187.385	31.59670671
187.6	33.38066165
187.815	27.64931196
188.03	27.59660968
188.244	28.08743169
188.459	21.29388318
188.674	22.61705048
188.889	25.56358996
189.103	28.36203216
189.318	26.95106292
189.533	23.1611662
189.747	25.74937856
189.962	24.33454087
190.177	22.84712696
190.391	21.31044259
190.606	24.70411985
190.821	28.22707174
191.035	25.13022666
191.25	27.56038989
191.465	23.80552053
191.679	26.35757834
191.894	18.64938025
192.109	21.76347096
192.323	24.69669502
192.538	24.09655365
192.752	25.89740063
192.967	33.72879018
193.181	33.70654863
193.396	31.64761264
193.611	29.2898165
193.825	31.13916868
194.04	26.4573991
194.254	30.10975028
194.469	28.37364978
194.683	26.44747394
194.898	26.58968437
195.112	30.38431373
195.327	29.46236559
195.541	27.49244713
195.756	29.22969918
195.97	28.52093023
196.184	29.4550552
196.399	32.03707069
196.613	22.85012285
196.828	21.349134
197.042	15.55229896
197.257	14.52661163
197.471	7.71578769
197.685	2.81716074
197.9	-0.74498567
198.114	4.30856068
198.328	1.87606595
198.543	11.98149066
198.757	5.56558857
198.971	-0.01636393
199.186	0.68587106
199.4	-0.33180597
199.614	-4.10503573
199.829	-7.87181594
200.043	-5.52166432
200.257	-7.9525126
200.471	-10.13172874
200.686	-16.27906977
200.9	-17.96237723
201.114	-11.59874608
201.328	-13.79600067
201.543	-8.99076624
201.757	-10.49492181
201.971	-7.57171971
202.185	-5.2251167
202.399	-0.92103276
202.614	-3.16649642
202.828	-1.19398792
203.042	0.32163334
203.256	1.01234225
203.47	8.2020202
203.684	11.27131568
203.899	8.53329547
204.113	4.39451745
204.327	9.16630917
204.541	11.14758991
204.755	8.26651115
204.969	8.6715079
205.183	8.24333561
205.397	10.60585055
205.611	6.52264229
205.825	8.86876527
206.039	8.12145867
206.253	10.39281055
206.467	8.80668627
206.681	9.56766037
206.895	8.48549946
207.109	11.65441728
207.323	8.97978373
207.537	7.30923695
207.751	6.35819447
207.965	4.62573591
208.179	1.71973438
208.393	1.28837283
208.607	3.04069858
208.821	-1.51935958
209.035	-1.12466339
209.249	0.92811074
209.463	5.25842697
209.677	6.7366331
209.891	8.69856588
210.104	10.5103521
210.318	8.87127218
210.532	6.53419947
210.746	8.44351355
210.96	5.94122931
211.174	10.6356512
211.387	8.3053169
211.601	7.40410348
211.815	11.91149355
212.029	12.46294626
212.243	16.30176404
212.456	17.61497459
212.67	20.90741876
212.884	20.71127031
213.098	20.59004302
213.311	19.43479823
213.525	17.10945802
213.739	16.06343058
213.953	12.93538462
214.166	14.51297431
214.38	13.56717406
214.594	10.75428417
214.807	9.00343643
215.021	12.37935376
215.235	14.92598126
215.448	19.38537522
215.662	19.17513962
215.876	20.26598156
216.089	20.22086256
216.303	14.56864216
216.516	12.31293525
216.73	8.80455977
216.944	7.86930511
217.157	3.54336546
217.371	2.37989653
217.584	5.5044488
217.798	12.505434
218.011	15.65477037
218.225	14.26955169
218.439	14.63451394
218.652	13.20643353
218.866	9.37933159
219.079	17.42782954
219.293	22.52493673
219.506	20.3076468
219.719	13.29827198
219.933	12.2287685
220.146	6.41080313
220.36	9.16184582
220.573	11.21159729
220.787	15.09558339
221	15.61876911
221.214	10.18705423
221.427	6.94316839
221.64	6.78218492
221.854	11.04764378
222.067	10.17108986
222.28	2.40757795
222.494	-0.43290043
222.707	2.60395365
222.92	9.31366421
223.134	4.83492024
223.347	4.19502537
223.56	3.86984311
223.774	1.789683
223.987	3.05300193
224.2	7.3322598
224.414	6.29487046
224.627	6.50398097
224.84	4.11130871
225.053	2.10815765
225.267	2.12936119
225.48	4.35611477
225.693	7.34768755
225.906	9.07241284
226.119	8.26632939
226.333	6.70088917
226.546	4.40802734
226.759	7.67542008
226.972	8.52676827
227.185	9.34003197
227.398	6.61814874
227.612	9.65622947
227.825	13.33286723
228.038	13.15627774
228.251	14.65170023
228.464	14.72302273
228.677	13.90864245
228.89	13.67438242
229.103	13.4208
229.316	13.67781155
229.529	15.16938444
229.743	13.59818929
229.956	12.58225096
230.169	11.6698762
230.382	11.56201736
230.595	11.78989732
230.808	11.10891187
231.021	12.27867033
231.234	11.58155724
231.447	10.49234393
231.66	10.82286923
231.872	11.25387484
232.085	10.8540531
232.298	8.91363695
232.511	7.8124326
232.724	7.64653377
232.937	7.28217925
233.15	6.8571196
233.363	8.65606315
233.576	10.43357899
233.789	10.54035293
234.002	8.6476245
234.214	8.82951215
234.427	8.48556475
234.64	8.91248911
234.853	7.86714938
235.066	7.89353889
235.279	8.42058431
235.491	7.91082035
235.704	8.37789661
235.917	8.64804119
236.13	7.91107154
236.342	8.19420189
236.555	7.52706989
236.768	7.82836019
236.981	7.64230733
237.193	7.09980735
237.406	6.76942924
237.619	6.23395391
237.832	5.52103216
238.044	5.44663472
238.257	5.24127802
238.47	5.33930095
238.682	5.35942013
238.895	5.29791139
239.108	5.01082976
239.32	5.21486804
239.533	4.90411462
239.746	4.90178965
239.958	5.03559522
240.171	4.89329695
240.383	4.8326761
240.596	4.96688513
240.808	4.98272787
241.021	5.14465576
241.234	5.13121484
241.446	5.27948326
241.659	5.20317889
241.871	5.33758184
242.084	5.36742083
242.296	5.46909098
242.509	5.16229116
242.721	5.09979566
242.934	5.09047748
243.146	5.15877917
243.359	5.07581104
243.571	5.08991539
243.784	5.16402449
243.996	5.18921414
244.208	5.19620284
244.421	5.05514905
244.633	5.04429038
244.846	5.02945332
245.058	4.96645726
245.27	4.91198641
245.483	4.88850932
245.695	4.77336521
245.907	4.63795929
246.12	4.63461231
246.332	4.5574791
246.544	4.61058554
246.757	4.53225114
246.969	4.55684368
247.181	4.57302373
247.394	4.57300875
247.606	4.51171241
247.818	4.54284214
248.03	4.560513
248.243	4.52174927
248.455	4.54950204
248.667	4.52158413
248.879	4.5617096
249.092	4.64448366
249.304	4.58905017
249.516	4.57645168
249.728	4.49938545
249.94	4.46354031
250.153	4.47883734
250.365	4.65001315
250.577	4.7100887
250.789	4.74655841
251.001	4.69988419
251.213	4.72295281
251.425	4.81212065
251.637	4.78433092
251.85	4.84564717
252.062	4.93783965
252.274	4.88956687
252.486	4.9565351
252.698	4.87433634
252.91	4.83301056
253.122	4.76042695
253.334	4.722027
253.546	4.66680426
253.758	4.66181849
253.97	4.69092837
254.182	4.76626522
254.394	4.697878
254.606	4.69066506
254.818	4.58894553
255.03	4.57925389
255.242	4.57840279
255.454	4.58344175
255.666	4.50738441
255.877	4.48730535
256.089	4.49595062
256.301	4.46929894
256.513	4.35218826
256.725	4.37843784
256.937	4.29257741
257.149	4.29224405
257.361	4.29120967
257.572	4.30762233
257.784	4.31240471
257.996	4.28295687
258.208	4.28438325
258.42	4.25991456
258.631	4.24311911
258.843	4.2490672
259.055	4.26355618
259.267	4.28150027
259.479	4.23760127
259.69	4.20123545
259.902	4.21729181
260.114	4.27230468
260.325	4.25253033
260.537	4.20381956
260.749	4.15838661
260.961	4.18001329
261.172	4.20593723
261.384	4.24164884
261.596	4.26336401
261.807	4.26217069
262.019	4.26786797
262.23	4.30025716
262.442	4.27573677
262.654	4.26754388
262.865	4.28285973
263.077	4.29047138
263.288	4.31417759
263.5	4.32089525
263.712	4.30837433
263.923	4.31599812
264.135	4.35917042
264.346	4.3579616
264.558	4.3374009
264.769	4.33561201
264.981	4.40334374
265.192	4.47253656
265.404	4.48606989
265.615	4.46690895
265.827	4.44540153
266.038	4.41992126
266.25	4.43944623
266.461	4.48141681
266.673	4.46253344
266.884	4.45629675
267.095	4.47264881
267.307	4.49651158
267.518	4.46631454
267.73	4.46224138
267.941	4.45866192
268.152	4.41182607
268.364	4.4216291
268.575	4.39825366
268.786	4.38400815
268.998	4.36565526
269.209	4.37434192
269.42	4.40591697
269.632	4.33816498
269.843	4.30925936
270.054	4.34889878
270.265	4.36825297
270.477	4.38665804
270.688	4.38896316
270.899	4.34344138
271.11	4.33156503
271.322	4.34986973
271.533	4.34980265
271.744	4.36945134
271.955	4.39551198
272.166	4.38166216
272.378	4.38433389
272.589	4.40866853
272.8	4.41567627
273.011	4.45291759
273.222	4.41917293
273.433	4.45071312
273.644	4.42961299
273.856	4.39758081
274.067	4.46214142
274.278	4.53574256
274.489	4.49666787
274.7	4.51852141
274.911	4.48648261
275.122	4.50174748
275.333	4.53606299
275.544	4.61596968
275.755	4.61780066
275.966	4.60075724
276.177	4.51367843
276.388	4.5344571
276.599	4.55393746
276.81	4.52505156
277.021	4.54591647
277.232	4.59953862
277.443	4.5376723
277.654	4.58533196
277.865	4.58543602
278.076	4.62191125
278.287	4.61740405
278.497	4.59444114
278.708	4.58443029
278.919	4.57958685
279.13	4.53843779
279.341	4.52209781
279.552	4.48312243
279.763	4.47473222
279.973	4.4114702
280.184	4.4228896
280.395	4.41600083
280.606	4.43242928
280.817	4.42554263
281.027	4.43636518
281.238	4.41846498
281.449	4.39338707
281.66	4.32239098
281.87	4.37476195
282.081	4.37576537
282.292	4.3439223
282.503	4.32528374
282.713	4.33480049
282.924	4.35145723
283.135	4.33390928
283.345	4.3411644
283.556	4.37121986
283.767	4.42188301
283.977	4.41827402
284.188	4.41886463
284.399	4.41887856
284.609	4.40774919
284.82	4.44184015
285.03	4.45464403
285.241	4.40899285
285.451	4.4101989
285.662	4.45935543
285.873	4.51203006
286.083	4.53757257
286.294	4.51421863
286.504	4.50293147
286.715	4.53700456
286.925	4.50887415
287.136	4.5172463
287.346	4.54904917
287.557	4.57491181
287.767	4.57883765
287.978	4.55321335
288.188	4.53591103
288.399	4.57890558
288.609	4.56401734
288.819	4.58904397
289.03	4.6236797
289.24	4.64427989
289.451	4.63782572
289.661	4.6406582
289.871	4.61395756
290.082	4.58663153
290.292	4.51848953
290.502	4.54289157
290.713	4.57691136
290.923	4.60624954
291.133	4.61427411
291.344	4.63970566
291.554	4.64642664
291.764	4.6327988
291.974	4.60167819
292.185	4.58270946
292.395	4.60235508
292.605	4.62729743
292.815	4.62662904
293.026	4.61723363
293.236	4.61078385
293.446	4.60916217
293.656	4.60737775
293.866	4.61989052
294.077	4.6772438
294.287	4.71364954
294.497	4.74635751
294.707	4.75266122
294.917	4.73959751
295.127	4.76950495
295.337	4.74649086
295.548	4.75920746
295.758	4.77701978
295.968	4.79278286
296.178	4.79863345
296.388	4.81947455
296.598	4.85006327
296.808	4.87243796
297.018	4.87990161
297.228	4.89752765
297.438	4.9251395
297.648	4.91200867
297.858	4.87673549
298.068	4.90225161
298.278	4.89688647
298.488	4.8793058
298.698	4.87618507
298.908	4.88518371
299.118	4.91523719
299.328	4.92899269
299.538	4.88416006
299.748	4.88867152
299.957	4.87192326
300.167	4.87718815
300.377	4.86195117
300.587	4.8477275
300.797	4.83674002
301.007	4.81456078
301.217	4.78222066
301.426	4.75665434
301.636	4.74735488
301.846	4.77872551
302.056	4.8196572
302.266	4.81308781
302.475	4.77158331
302.685	4.79299048
302.895	4.78642247
303.105	4.79632331
303.314	4.79358869
303.524	4.79321969
303.734	4.79775265
303.944	4.82678132
304.153	4.86811484
304.363	4.88080845
304.573	4.91452401
304.782	4.94768999
304.992	4.9427584
305.202	4.95199734
305.411	5.00106317
305.621	5.04187374
305.831	5.0590984
306.04	5.05661669
306.25	5.04825625
306.459	5.0421907
306.669	5.05615348
306.878	5.08114304
307.088	5.06460049
307.298	5.06946923
307.507	5.06390604
307.717	5.08689681
307.926	5.08390505
308.136	5.09433575
308.345	5.07449218
308.555	5.03296579
308.764	5.05997284
308.974	5.06611337
309.183	5.04138763
309.392	5.03232089
309.602	5.03295639
309.811	4.97858067
310.021	4.99203334
310.23	5.01029551
310.44	4.99168473
310.649	4.99030223
310.858	4.9771944
311.068	5.0187577
311.277	5.02690052
311.486	5.07163589
311.696	5.11396314
311.905	5.1581683
312.114	5.14611061
312.324	5.17008712
312.533	5.17538366
312.742	5.18717448
312.952	5.25880694
313.161	5.25492672
313.37	5.28455243
313.579	5.31927381
313.789	5.34629698
313.998	5.37904435
314.207	5.43092854
314.416	5.4382494
314.625	5.41089639
314.835	5.44433655
315.044	5.46311755
315.253	5.45646211
315.462	5.46228103
315.671	5.4431832
315.88	5.44480223
316.09	5.44294116
316.299	5.42094307
316.508	5.41661781
316.717	5.42277259
316.926	5.42616582
317.135	5.45482394
317.344	5.40996457
317.553	5.41362152
317.762	5.37944001
317.971	5.37316174
318.18	5.37572262
318.389	5.3909675
318.598	5.39807598
318.807	5.39328093
319.016	5.39352405
319.225	5.37044669
319.434	5.34933679
319.643	5.41084735
319.852	5.41759964
320.061	5.44330024
320.27	5.42147392
320.479	5.44866609
320.688	5.44137572
320.897	5.44416077
321.105	5.42414033
321.314	5.42177714
321.523	5.41440442
321.732	5.39913358
321.941	5.3974958
322.15	5.37840843
322.359	5.36313871
322.567	5.35325841
322.776	5.36927265
322.985	5.40239628
323.194	5.37365587
323.403	5.41333013
323.611	5.42284622
323.82	5.45768962
324.029	5.43862212
324.237	5.4471488
324.446	5.45201352
324.655	5.46425866
324.864	5.42314233
325.072	5.39532015
325.281	5.43977262
325.49	5.45155906
325.698	5.45728474
325.907	5.45718112
326.116	5.47409969
326.324	5.48581218
326.533	5.51359329
326.741	5.48801332
326.95	5.50495558
327.159	5.45951431
327.367	5.4129449
327.576	5.44095668
327.784	5.46642106
327.993	5.47438921
328.201	5.43069812
328.41	5.41843487
328.618	5.38148752
328.827	5.41789473
329.035	5.44233547
329.244	5.43040828
329.452	5.47265017
329.661	5.42195979
329.869	5.43083572
330.078	5.4500801
330.286	5.44662747
330.495	5.49061891
330.703	5.49611703
330.911	5.48173699
331.12	5.58068111
331.328	5.61450509
331.537	5.63048593
331.745	5.63681758
331.953	5.64929448
332.162	5.62935929
332.37	5.64258109
332.578	5.70070462
332.787	5.73563076
332.995	5.75697128
333.203	5.73827665
333.411	5.72771271
333.62	5.76848306
333.828	5.78075979
334.036	5.80709727
334.244	5.81952137
334.453	5.79471392
334.661	5.8024451
334.869	5.78801202
335.077	5.79384101
335.285	5.81310897
335.494	5.77292786
335.702	5.74793747
335.91	5.75990094
336.118	5.82647187
336.326	5.83092017
336.534	5.86386997
336.742	5.90721122
336.951	5.90787021
337.159	5.92430378
337.367	6.00117461
337.575	6.01170244
337.783	6.03178007
337.991	6.04034441
338.199	6.03300628
338.407	6.03764887
338.615	6.05367265
338.823	6.04543218
339.031	6.0698748
339.239	6.07836866
339.447	6.0650986
339.655	6.05117432
339.863	6.0574804
340.071	6.06926522
340.279	6.09083459
340.487	6.06793257
340.695	6.07400539
340.903	6.02178097
341.11	6.00171843
341.318	6.00405155
341.526	6.00600114
341.734	5.97989191
341.942	5.96220502
342.15	5.97517669
342.358	5.9707415
342.565	5.99440802
342.773	5.9917165
342.981	5.98503949
343.189	6.01865848
343.397	6.01331379
343.604	6.04153735
343.812	6.044127
344.02	6.06579563
344.228	6.09070429
344.435	6.11914748
344.643	6.10485309
344.851	6.10275064
345.058	6.10807184
345.266	6.16345262
345.474	6.17538527
345.681	6.15992856
345.889	6.16956076
346.097	6.15055283
346.304	6.16365036
346.512	6.10795467
346.72	6.13894717
346.927	6.12450523
347.135	6.11852045
347.342	6.12756329
347.55	6.11922383
347.758	6.13050518
347.965	6.098923
348.173	6.12812783
348.38	6.12103146
348.588	6.09596379
348.795	6.05996995
349.003	6.05928529
349.21	6.04401907
349.418	6.04672994
349.625	6.03120521
349.833	6.00872144
350.04	6.04126915
350.247	6.04028068
350.455	6.08420423
350.662	6.09686135
350.87	6.13595585
351.077	6.10109815
351.284	6.14145105
351.492	6.15005832
351.699	6.1630886
351.906	6.15234849
352.114	6.1542174
352.321	6.14477197
352.528	6.11963911
352.736	6.12162073
352.943	6.10507916
353.15	6.14196969
353.358	6.14282705
353.565	6.17994418
353.772	6.17323561
353.979	6.19994208
354.187	6.23207437
354.394	6.21653838
354.601	6.20684239
354.808	6.17406665
355.015	6.1567965
355.223	6.16721554
355.43	6.1681289
355.637	6.14274629
355.844	6.14327561
356.051	6.12758996
356.258	6.16661529
356.465	6.16337676
356.673	6.1841613
356.88	6.21068714
357.087	6.24572703
357.294	6.25271553
357.501	6.26001808
357.708	6.26434609
357.915	6.23901802
358.122	6.25380129
358.329	6.23593476
358.536	6.23815699
358.743	6.2425438
358.95	6.27119896
359.157	6.25946874
359.364	6.26562972
359.571	6.27651044
359.778	6.28687926
359.985	6.27783249
360.192	6.28859575
360.399	6.30509326
360.606	6.29154722
360.812	6.30083187
361.019	6.31406103
361.226	6.29539703
361.433	6.26960327
361.64	6.29717718
361.847	6.27141212
362.054	6.3085769
362.26	6.32501079
362.467	6.32890926
362.674	6.33461348
362.881	6.33482807
363.088	6.32747378
363.294	6.30542315
363.501	6.31943538
363.708	6.32718974
363.915	6.31577041
364.121	6.33294241
364.328	6.34812364
364.535	6.35469378
364.741	6.35401536
364.948	6.35599119
365.155	6.36419326
365.361	6.35182037
365.568	6.34069888
365.775	6.35108869
365.981	6.34282645
366.188	6.36237907
366.395	6.33084254
366.601	6.33596269
366.808	6.32566305
367.014	6.31835085
367.221	6.29885416
367.427	6.32574524
367.634	6.30491351
367.84	6.31914066
368.047	6.32826311
368.254	6.31531036
368.46	6.31010745
368.667	6.34232046
368.873	6.32574508
369.079	6.32353688
369.286	6.33477152
369.492	6.36282896
369.699	6.39028855
369.905	6.42131865
370.112	6.40432737
370.318	6.41066377
370.524	6.42861408
370.731	6.44105147
370.937	6.44095474
371.144	6.46926756
371.35	6.47553931
371.556	6.49728927
371.763	6.47032
371.969	6.50744388
372.175	6.48174965
372.381	6.48139443
372.588	6.5127117
372.794	6.50461784
373	6.4676604
373.206	6.48387491
373.413	6.50268467
373.619	6.50240888
373.825	6.48263346
374.031	6.47458648
374.238	6.48824598
374.444	6.53282134
374.65	6.54611644
374.856	6.53704664
375.062	6.52798657
375.268	6.53564266
375.475	6.53793428
375.681	6.52977813
375.887	6.55502331
376.093	6.58218627
376.299	6.55990137
376.505	6.60141579
376.711	6.62024081
376.917	6.62138519
377.123	6.64281987
377.329	6.67456339
377.535	6.65757497
377.741	6.64886441
377.947	6.65017046
378.153	6.66254956
378.359	6.63358753
378.565	6.62870276
378.771	6.61500735
378.977	6.61670206
379.183	6.62169081
379.389	6.62560629
379.595	6.63303768
379.801	6.62383449
380.007	6.63544199
380.213	6.61753858
380.418	6.61343599
380.624	6.65517724
380.83	6.65959131
381.036	6.67082636
381.242	6.67410941
381.448	6.67793537
381.653	6.67558964
381.859	6.68761626
382.065	6.68558593
382.271	6.703592
382.476	6.68859288
382.682	6.71349955
382.888	6.71666496
383.094	6.73333741
383.299	6.72388507
383.505	6.73125025
383.711	6.76581403
383.916	6.77254879
384.122	6.76264534
384.328	6.79375305
384.533	6.8058854
384.739	6.81186276
384.945	6.79222753
385.15	6.79211089
385.356	6.77419373
385.562	6.76623439
385.767	6.78108614
385.973	6.78028487
386.178	6.82302924
386.384	6.83625882
386.589	6.82625222
386.795	6.83961892
387	6.85758165
387.206	6.85686679
387.411	6.85021237
387.617	6.87156836
387.822	6.8727565
388.028	6.86054336
388.233	6.84903864
388.439	6.86493468
388.644	6.83911284
388.85	6.8397539
389.055	6.83967694
389.26	6.84487352
389.466	6.85521661
389.671	6.87128887
389.877	6.89432762
390.082	6.87267496
390.287	6.87651084
390.493	6.86768354
390.698	6.8680273
390.903	6.8728369
391.109	6.87313889
391.314	6.87737088
391.519	6.88465656
391.724	6.87507587
391.93	6.87313378
392.135	6.8793326
392.34	6.88252774
392.545	6.89743772
392.751	6.89794549
392.956	6.92983044
393.161	6.93632993
393.366	6.95097734
393.571	6.97177085
393.776	6.96394563
393.982	6.9628269
394.187	6.9566824
394.392	6.98012891
394.597	6.98583576
394.802	6.99631881
395.007	7.00463742
395.212	7.0181823
395.417	7.01736746
395.622	7.00910103
395.827	7.03531908
396.032	7.05337423
396.237	7.06195327
396.442	7.08029084
396.647	7.08447454
396.852	7.09725805
397.057	7.10414706
397.262	7.0932582
397.467	7.10498559
397.672	7.09722169
397.877	7.11357187
398.082	7.13207921
398.287	7.12886459
398.492	7.15738157
398.697	7.1687457
398.902	7.17746806
399.107	7.17298933
399.311	7.1800223
399.516	7.1686121
399.721	7.19087777
399.926	7.19886593
400.131	7.19835474
400.336	7.20529147
400.54	7.20912187
400.745	7.20278878
400.95	7.21128979
401.155	7.21454341
401.359	7.22523446
401.564	7.21175299
401.769	7.20885494
401.974	7.23561863
402.178	7.2100444
402.383	7.21465764
402.588	7.23405521
402.792	7.19878941
402.997	7.1822558
403.202	7.18268446
403.406	7.19701426
403.611	7.19686629
403.815	7.20631128
404.02	7.1960335
404.225	7.20372574
404.429	7.18504558
404.634	7.21668167
404.838	7.20879127
405.043	7.20583271
405.247	7.21213618
405.452	7.21831076
405.656	7.22594709
405.861	7.27252198
406.065	7.27618205
406.27	7.27523316
406.474	7.29047592
406.679	7.2721679
406.883	7.27727407
407.088	7.30565105
407.292	7.32465918
407.497	7.33139896
407.701	7.31292635
407.905	7.32297937
408.11	7.34342064
408.314	7.35118872
408.518	7.3721037
408.723	7.39228873
408.927	7.38297627
409.131	7.39915821
409.336	7.41513116
409.54	7.41121189
409.744	7.42167355
409.949	7.41464664
410.153	7.40785054
410.357	7.41640543
410.561	7.41760428
410.766	7.41010407
410.97	7.43550173
411.174	7.44354141
411.378	7.44832806
411.582	7.45640273
411.787	7.46492869
411.991	7.47284257
412.195	7.47863764
412.399	7.47869771
412.603	7.49850948
412.807	7.49008094
413.011	7.47770017
413.215	7.46883687
413.419	7.46675729
413.624	7.47490904
413.828	7.48798182
414.032	7.46885865
414.236	7.48236802
414.44	7.48618833
414.644	7.48082669
414.848	7.48697446
415.052	7.51822213
415.256	7.5077585
415.46	7.50464012
415.664	7.52152694
415.868	7.53637455
416.072	7.52564772
416.275	7.5398882
416.479	7.54100267
416.683	7.54518098
416.887	7.54324417
417.091	7.55491263
417.295	7.57474022
417.499	7.581114
417.703	7.59320601
417.906	7.59855168
418.11	7.6000901
418.314	7.60635788
418.518	7.61771933
418.722	7.61538176
418.925	7.61982743
419.129	7.62673731
419.333	7.62186442
419.537	7.62194837
419.74	7.62944131
419.944	7.62445494
420.148	7.6157196
420.352	7.63251768
420.555	7.63893999
420.759	7.64704161
420.963	7.659282
421.166	7.66078411
421.37	7.66690704
421.573	7.66925417
421.777	7.67152296
421.981	7.67814926
422.184	7.6814226
422.388	7.68433602
422.591	7.69514647
422.795	7.69395886
422.999	7.69589985
423.202	7.70245757
423.406	7.69057952
423.609	7.70083961
423.813	7.71954775
424.016	7.71345288
424.22	7.71709615
424.423	7.72301917
424.627	7.72487817
424.83	7.7314753
425.033	7.74178966
425.237	7.74290157
425.44	7.7457018
425.644	7.74535021
425.847	7.75383306
426.05	7.76169344
426.254	7.76476417
426.457	7.76398222
426.66	7.7730214
426.864	7.77822439
427.067	7.78286822
427.27	7.7867
427.474	7.78501702
427.677	7.81151774
427.88	7.80743135
428.084	7.80360844
428.287	7.82374945
428.49	7.82836098
428.693	7.83480177
428.896	7.84812873
429.1	7.85180151
429.303	7.8459769
429.506	7.84729183
429.709	7.86003429
429.912	7.87189902
430.116	7.89148855
430.319	7.90424899
430.522	7.90546849
430.725	7.92163504
430.928	7.93081009
431.131	7.93138279
431.334	7.94589976
431.537	7.97445724
431.74	7.99099611
431.943	7.9896919
432.146	7.99899505
432.349	8.00676818
432.552	8.00572201
432.755	8.01784969
432.958	8.01361459
433.161	8.02106241
433.364	8.02702129
433.567	8.03148751
433.77	8.03798412
433.973	8.03871893
434.176	8.03543965
434.379	8.02284463
434.582	8.02057121
434.785	8.03024384
434.988	8.04107549
435.19	8.03512247
435.393	8.04303932
435.596	8.03876969
435.799	8.0463947
436.002	8.04638647
436.205	8.05252716
436.407	8.0627899
436.61	8.06562934
436.813	8.08862169
437.016	8.09713412
437.218	8.12536506
437.421	8.12296803
437.624	8.13329316
437.827	8.14077476
438.029	8.14616204
438.232	8.15443316
438.435	8.16508282
438.637	8.17861654
438.84	8.18241716
439.043	8.18202705
439.245	8.17450423
439.448	8.18092127
439.65	8.18717586
439.853	8.19710112
440.056	8.18816174
440.258	8.19116495
440.461	8.19478172
440.663	8.19898619
440.866	8.20077763
441.068	8.19391267
441.271	8.18929544
441.473	8.18364973
441.676	8.1927098
441.878	8.19285348
442.081	8.21101833
442.283	8.21938276
442.486	8.2318811
442.688	8.23445697
442.89	8.24156096
443.093	8.25731717
443.295	8.26082947
443.498	8.27361948
443.7	8.28564207
443.902	8.29401007
444.105	8.29416016
444.307	8.29770759
444.509	8.31071426
444.712	8.32053343
444.914	8.31215345
445.116	8.32363397
445.319	8.33561081
445.521	8.34798094
445.723	8.35236588
445.925	8.35327398
446.128	8.35804021
446.33	8.35666026
446.532	8.35904996
446.734	8.35793613
446.936	8.3566313
447.139	8.35785999
447.341	8.35688135
447.543	8.36652362
447.745	8.36279181
447.947	8.37133289
448.149	8.37359064
448.351	8.39058117
448.553	8.4024009
448.755	8.41092412
448.958	8.41137264
449.16	8.4330993
449.362	8.43940365
449.564	8.43706933
449.766	8.43740998
449.968	8.44514779
450.17	8.46112457
450.372	8.46896999
450.574	8.47854686
450.776	8.48714554
450.978	8.50436771
451.179	8.52870958
451.381	8.53279381
451.583	8.54508806
451.785	8.5588602
451.987	8.571019
452.189	8.56814028
452.391	8.57653725
452.593	8.57784351
452.795	8.5874511
452.996	8.59055524
453.198	8.60898169
453.4	8.61064007
453.602	8.62749649
453.804	8.63337043
454.005	8.6420544
454.207	8.65419578
454.409	8.66232808
454.611	8.66927663
454.812	8.67791013
455.014	8.69593521
455.216	8.69645146
455.417	8.69321503
455.619	8.69925905
455.821	8.71424614
456.022	8.70863722
456.224	8.71203458
456.426	8.72199258
456.627	8.72578957
456.829	8.73804294
457.031	8.7321971
457.232	8.74308572
457.434	8.73913994
457.635	8.75123042
457.837	8.74553786
458.038	8.75579723
458.24	8.76269599
458.441	8.76839855
458.643	8.77423941
458.844	8.77565696
459.046	8.77398252
459.247	8.7713157
459.449	8.76816181
459.65	8.770028
459.852	8.77916101
460.053	8.77169254
460.254	8.7891084
460.456	8.80090455
460.657	8.80789988
460.859	8.81144665
461.06	8.80656564
461.261	8.82185369
461.463	8.82220463
461.664	8.82007348
461.865	8.81608077
462.066	8.82187564
462.268	8.82011637
462.469	8.82833972
462.67	8.81925626
462.872	8.81677554
463.073	8.82122689
463.274	8.82755791
463.475	8.8295713
463.676	8.84201403
463.878	8.84429784
464.079	8.85008097
464.28	8.85220086
464.481	8.85850043
464.682	8.86127436
464.883	8.85353129
465.085	8.86065487
465.286	8.87381427
465.487	8.87639539
465.688	8.87581905
465.889	8.90063189
466.09	8.91042156
466.291	8.92049214
466.492	8.94101216
466.693	8.94751702
466.894	8.96692866
467.095	8.9690249
467.296	8.97390345
467.497	8.98297117
467.698	8.98960938
467.899	8.99641636
468.1	9.01074363
468.301	9.00474617
468.502	9.00720642
468.703	9.00749833
468.903	9.00738738
469.104	9.03276896
469.305	9.04078245
469.506	9.0554161
469.707	9.06393355
469.908	9.08135188
470.109	9.08648032
470.309	9.08638173
470.51	9.10181144
470.711	9.09653017
470.912	9.10121903
471.112	9.11186377
471.313	9.1237808
471.514	9.14322411
471.715	9.16127478
471.915	9.16618266
472.116	9.17717186
472.317	9.1841672
472.517	9.19080178
472.718	9.20588503
472.919	9.21460758
473.119	9.22745735
473.32	9.23354416
473.521	9.24812529
473.721	9.24580656
473.922	9.2568901
474.122	9.25674736
474.323	9.26469156
474.523	9.27012818
474.724	9.26181305
474.925	9.27276347
475.125	9.27847729
475.326	9.28346335
475.526	9.29196072
475.727	9.29820098
475.927	9.29107073
476.127	9.3020139
476.328	9.30203238
476.528	9.3129382
476.729	9.33152004
476.929	9.34043424
477.13	9.34932767
477.33	9.35255546
477.53	9.35224395
477.731	9.35154586
477.931	9.35268124
478.131	9.35139078
478.332	9.36669279
478.532	9.37556171
478.732	9.39247083
478.933	9.41665668
479.133	9.42198324
479.333	9.43719503
479.533	9.45663509
479.734	9.45945822
479.934	9.47418396
480.134	9.48593628
480.334	9.50451913
480.534	9.5197097
480.735	9.52588116
480.935	9.53072858
481.135	9.53823247
481.335	9.53634155
481.535	9.54723
481.735	9.55480391
481.935	9.56242747
482.136	9.570119
482.336	9.57981108
482.536	9.58521067
482.736	9.58918682
482.936	9.59636692
483.136	9.60139818
483.336	9.60708027
483.536	9.60966516
483.736	9.60569004
483.936	9.61671923
484.136	9.61855991
484.336	9.62424111
484.536	9.6241367
484.736	9.6250017
484.936	9.63197906
485.135	9.63299256
485.335	9.63496399
485.535	9.63762078
485.735	9.63869485
485.935	9.63496813
486.135	9.63583433
486.335	9.64016177
486.534	9.64398291
486.734	9.64739962
486.934	9.65177269
487.134	9.64839994
487.334	9.65108394
487.533	9.65867712
487.733	9.66254831
487.933	9.67010953
488.133	9.66952824
488.332	9.67077667
488.532	9.67476622
488.732	9.68124258
488.931	9.68573941
489.131	9.6844648
489.331	9.69483346
489.53	9.69912226
489.73	9.70875881
489.93	9.7157495
490.129	9.73052236
490.329	9.73959586
490.528	9.74189071
490.728	9.74076677
490.928	9.74493019
491.127	9.7449697
491.327	9.75780561
491.526	9.75613624
491.726	9.76155242
491.925	9.76839104
492.125	9.7739499
492.324	9.78225151
492.524	9.79016127
492.723	9.79797486
492.922	9.79768868
493.122	9.80620777
493.321	9.82071495
493.521	9.82812715
493.72	9.84225191
493.919	9.85231738
494.119	9.86142654
494.318	9.86772235
494.517	9.88789749
494.717	9.89878432
494.916	9.92072661
495.115	9.93555787
495.315	9.95117533
495.514	9.9598793
495.713	9.9796773
495.912	9.99296185
496.112	10.00248955
496.311	10.01956152
496.51	10.03455043
496.709	10.05335189
496.908	10.07175345
497.108	10.09190014
497.307	10.1092401
497.506	10.12221375
497.705	10.13430507
497.904	10.14655665
498.103	10.15288751
498.302	10.16661983
498.501	10.19411641
498.701	10.19420149
498.9	10.22120671
499.099	10.2241106
499.298	10.23416335
499.497	10.25470428
499.696	10.26959963
499.895	10.28744965
500.094	10.30262688
500.293	10.32244312
500.492	10.32940735
500.691	10.34145386
500.89	10.34725046
501.088	10.34947419
501.287	10.36606649
501.486	10.37435635
501.685	10.38826275
501.884	10.41286197
502.083	10.43038603
502.282	10.46385086
502.481	10.48005095
502.679	10.48614047
502.878	10.50171942
503.077	10.51204419
503.276	10.54270266
503.475	10.5643738
503.673	10.58385002
503.872	10.60409975
504.071	10.62129166
504.27	10.63689903
504.468	10.6538365
504.667	10.6774891
504.866	10.70119114
505.064	10.7274229
505.263	10.74881888
505.462	10.76461343
505.66	10.78563257
505.859	10.8062528
506.058	10.81115124
506.256	10.82543538
506.455	10.83534925
506.653	10.85539024
506.852	10.87669532
507.05	10.90158787
507.249	10.91698613
507.448	10.92638119
507.646	10.945928
507.845	10.96188298
508.043	10.98469305
508.242	10.99931081
508.44	11.01875715
508.638	11.03977999
508.837	11.05042826
509.035	11.06488482
509.234	11.08015319
509.432	11.09612455
509.631	11.12004926
509.829	11.13819404
510.027	11.15771368
510.226	11.17838618
510.424	11.20658809
510.622	11.22081152
510.821	11.24853822
511.019	11.25650521
511.217	11.26883957
511.415	11.2896409
511.614	11.31856053
511.812	11.34204735
512.01	11.34687357
512.208	11.36093871
512.407	11.38220546
512.605	11.4008192
512.803	11.42288375
513.001	11.45063878
513.199	11.47313739
513.398	11.49709548
513.596	11.52663945
513.794	11.54327332
513.992	11.56352935
514.19	11.58756393
514.388	11.61776991
514.586	11.63712179
514.784	11.67366954
514.982	11.6931054
515.18	11.72631832
515.378	11.75695658
515.576	11.78420696
515.774	11.80819645
515.972	11.82577504
516.17	11.86364345
516.368	11.88737864
516.566	11.91219174
516.764	11.94086076
516.962	11.95020374
517.16	11.97644312
517.358	12.00341443
517.556	12.02877464
517.754	12.05101263
517.952	12.07089344
518.149	12.1006966
518.347	12.11991977
518.545	12.14159325
518.743	12.16510332
518.941	12.1867499
519.138	12.21439233
519.336	12.24681257
519.534	12.27111426
519.732	12.29656608
519.929	12.3223466
520.127	12.35650233
520.325	12.38693985
520.523	12.42006003
520.72	12.45220347
520.918	12.47160017
521.116	12.51904058
521.313	12.55385743
521.511	12.57956018
521.709	12.61581306
521.906	12.64616369
522.104	12.68624412
522.301	12.72728974
522.499	12.7673639
522.696	12.80934368
522.894	12.85184942
523.092	12.89876536
523.289	12.93453487
523.487	12.96510565
523.684	13.0163517
523.882	13.06496965
524.079	13.11233591
524.276	13.15513478
524.474	13.21066956
524.671	13.2610946
524.869	13.30139527
525.066	13.35993723
525.264	13.40764135
525.461	13.46142383
525.658	13.51464035
525.856	13.5587042
526.053	13.60500829
526.25	13.64740142
526.448	13.68957865
526.645	13.72957373
526.842	13.76995759
527.039	13.80472245
527.237	13.84012071
527.434	13.87830439
527.631	13.92270893
527.828	13.96107564
528.026	14.0001797
528.223	14.03269205
528.42	14.07729846
528.617	14.11292174
528.814	14.15631757
529.012	14.19913115
529.209	14.23995992
529.406	14.27864622
529.603	14.31666876
529.8	14.35240255
529.997	14.39278099
530.194	14.43792893
530.391	14.47942435
530.588	14.52215643
530.785	14.56655041
530.982	14.60336564
531.179	14.654974
531.376	14.69742016
531.573	14.73637949
531.77	14.78188997
531.967	14.82802917
532.164	14.87310467
532.361	14.92770736
532.558	14.97573143
532.755	15.02508414
532.952	15.0733043
533.149	15.12432768
533.346	15.17205451
533.543	15.22023198
533.739	15.26638412
533.936	15.32660648
534.133	15.38505194
534.33	15.43659505
534.527	15.49116565
534.723	15.54206542
534.92	15.59501169
535.117	15.66303779
535.314	15.71787927
535.51	15.7838279
535.707	15.85446673
535.904	15.9168842
536.1	15.97916651
536.297	16.04678627
536.494	16.11685919
536.69	16.1839215
536.887	16.25377599
537.084	16.32769308
537.28	16.40562182
537.477	16.48527714
537.674	16.57373142
537.87	16.65832804
538.067	16.73995895
538.263	16.81318498
538.46	16.89132438
538.656	16.97488055
538.853	17.06183912
539.049	17.14344496
539.246	17.21410236
539.442	17.28228453
539.639	17.35054446
539.835	17.41525098
540.032	17.48448495
540.228	17.55474687
540.424	17.62281942
540.621	17.69125059
540.817	17.75896024
541.014	17.8352916
541.21	17.89743747
541.406	17.96699854
541.603	18.03407025
541.799	18.09784438
541.995	18.16719781
542.191	18.22270386
542.388	18.29229141
542.584	18.36550078
542.78	18.42927355
542.976	18.49598046
543.173	18.57197823
543.369	18.6541804
543.565	18.72764001
543.761	18.79796927
543.957	18.88221242
544.154	18.96179302
544.35	19.03498962
544.546	19.10348204
544.742	19.18332884
544.938	19.24581622
545.134	19.30814789
545.33	19.3797085
545.526	19.44685892
545.722	19.51256113
545.919	19.578013
546.115	19.63741806
546.311	19.71772631
546.507	19.78221602
546.703	19.85836343
546.899	19.9315292
547.095	20.00291056
547.29	20.06642748
547.486	20.12717673
547.682	20.20019863
547.878	20.27624938
548.074	20.3460084
548.27	20.41825608
548.466	20.49578558
548.662	20.57638508
548.858	20.63865417
549.053	20.72684564
549.249	20.80437164
549.445	20.88196051
549.641	20.9655192
549.837	21.04274079
550.032	21.12994623
550.228	21.2140487
550.424	21.28496769
550.62	21.36201113
550.815	21.42141661
551.011	21.48601693
551.207	21.55660139
551.402	21.63195631
551.598	21.69648018
551.794	21.77323157
551.989	21.84319014
552.185	21.92038212
552.381	21.99877234
552.576	22.07750253
552.772	22.14565862
552.967	22.23075813
553.163	22.29805857
553.359	22.37131387
553.554	22.4622643
553.75	22.53497785
553.945	22.61591441
554.141	22.67863811
554.336	22.75472837
554.532	22.82711289
554.727	22.91109845
554.922	22.98235622
555.118	23.06140208
555.313	23.13164878
555.509	23.20524716
555.704	23.29705714
555.899	23.36424858
556.095	23.44718154
556.29	23.5173237
556.486	23.59085651
556.681	23.67532164
556.876	23.77484177
557.071	23.84247539
557.267	23.93278841
557.462	24.01265043
557.657	24.08870481
557.853	24.15903255
558.048	24.24168998
558.243	24.32605462
558.438	24.40480461
558.633	24.48779368
558.829	24.56012312
559.024	24.64613181
559.219	24.73284022
559.414	24.82991957
559.609	24.91884596
559.804	24.98037941
559.999	25.07816455
560.194	25.1549923
560.39	25.24420993
560.585	25.31375279
560.78	25.36915228
560.975	25.42632444
561.17	25.50195696
561.365	25.58288854
561.56	25.67503527
561.755	25.74591546
561.95	25.83545075
562.145	25.91223297
562.34	26.0156215
562.535	26.07896398
562.729	26.1481091
562.924	26.2245163
563.119	26.30607879
563.314	26.37901066
563.509	26.43085029
563.704	26.50261413
563.899	26.58784561
564.093	26.65859917
564.288	26.74673115
564.483	26.82449147
564.678	26.91072376
564.873	26.98170549
565.067	27.06149509
565.262	27.1333194
565.457	27.19136826
565.652	27.25762666
565.846	27.33155136
566.041	27.40469058
566.236	27.47682834
566.43	27.52154785
566.625	27.60984934
566.82	27.70438669
567.014	27.79072617
567.209	27.86509015
567.404	27.94925126
567.598	28.02938608
567.793	28.10398594
567.987	28.18701164
568.182	28.23664998
568.376	28.30142206
568.571	28.38476613
568.765	28.45031155
568.96	28.53552298
569.154	28.61611322
569.349	28.71147604
569.543	28.79568631
569.738	28.86014436
569.932	28.94258907
570.127	29.02215524
570.321	29.10571011
570.515	29.17848193
570.71	29.25088136
570.904	29.32337223
571.098	29.38725322
571.293	29.47252922
571.487	29.548995
571.681	29.6394227
571.876	29.71896456
572.07	29.79313278
572.264	29.89474112
572.458	29.96612605
572.653	30.03123944
572.847	30.12646937
573.041	30.20003926
573.235	30.2686297
573.43	30.32074336
573.624	30.39528506
573.818	30.48814638
574.012	30.57407633
574.206	30.66167696
574.4	30.73687538
574.594	30.82316983
574.788	30.89882842
574.983	30.9756841
575.177	31.07213905
575.371	31.14280081
575.565	31.21578157
575.759	31.27501421
575.953	31.35619197
576.147	31.44868038
576.341	31.52584489
576.535	31.61884649
576.729	31.70522689
576.923	31.78810044
577.117	31.89171285
577.31	31.99503859
577.504	32.10666077
577.698	32.21712236
577.892	32.29571965
578.086	32.37799839
578.28	32.4609588
578.474	32.53789411
578.668	32.64023174
578.861	32.74516082
579.055	32.83101491
579.249	32.91319562
579.443	33.02206083
579.636	33.12678316
579.83	33.25044525
580.024	33.35201755
580.218	33.43398888
580.411	33.53670527
580.605	33.63336686
580.799	33.73895158
580.992	33.81974843
581.186	33.89971514
581.38	33.98331165
581.573	34.06497573
581.767	34.15604778
581.961	34.26352152
582.154	34.34870721
582.348	34.44300414
582.541	34.53782125
582.735	34.63247321
582.928	34.72029546
583.122	34.8175695
583.315	34.90611518
583.509	34.97730609
583.702	35.0637863
583.896	35.13952497
584.089	35.20812223
584.283	35.2975839
584.476	35.37824177
584.67	35.46282443
584.863	35.53339934
585.056	35.61264468
585.25	35.69401
585.443	35.77069932
585.636	35.86262034
585.83	35.9117721
586.023	35.98066826
586.216	36.04089425
586.41	36.10872609
586.603	36.18090818
586.796	36.2385514
586.989	36.29825979
587.183	36.36589473
587.376	36.42335
587.569	36.49670328
587.762	36.57405907
587.955	36.64321311
588.149	36.7257795
588.342	36.79203335
588.535	36.86493909
588.728	36.94246918
588.921	37.00627597
589.114	37.08224
589.307	37.16121669
589.5	37.24475591
589.693	37.29860629
589.886	37.4037021
590.08	37.48857452
590.273	37.56626091
590.466	37.64775979
590.659	37.73711339
590.852	37.78942482
591.044	37.86079755
591.237	37.94595279
591.43	38.02223082
591.623	38.09487121
591.816	38.14433117
592.009	38.19661177
592.202	38.25092591
592.395	38.32746927
592.588	38.3909433
592.781	38.45127067
592.973	38.52523282
593.166	38.59816824
593.359	38.66039798
593.552	38.71376277
593.745	38.77399107
593.937	38.79283082
594.13	38.83781487
594.323	38.90492301
594.515	38.94965964
594.708	38.98622959
594.901	39.06823238
595.094	39.14147412
595.286	39.17840177
595.479	39.24280592
595.672	39.30636937
595.864	39.38007301
596.057	39.45605243
596.249	39.5283581
596.442	39.60226619
596.635	39.6609069
596.827	39.72127112
597.02	39.78115876
597.212	39.83289767
597.405	39.89747975
597.597	39.97236041
597.79	40.04978051
597.982	40.15912966
598.175	40.2338459
598.367	40.27482921
598.559	40.3353014
598.752	40.4225514
598.944	40.49687361
599.137	40.56513932
599.329	40.62337171
599.521	40.68747443
599.714	40.75259835
599.906	40.81866991
600.098	40.87132715
600.291	40.91434818
600.483	40.95678129
600.675	41.01049129
600.868	41.06386551
601.06	41.10369657
601.252	41.16335778
601.444	41.20825878
601.637	41.24303854
601.829	41.29203755
602.021	41.30698786
602.213	41.33957253
602.405	41.42084262
602.597	41.46041686
602.789	41.5032297
602.982	41.52612884
603.174	41.57614147
603.366	41.64246256
603.558	41.70529569
603.75	41.73405812
603.942	41.77290155
604.134	41.83716357
604.326	41.91395083
604.518	41.96737005
604.71	42.00933085
604.902	42.05515119
605.094	42.12824021
605.286	42.17701494
605.478	42.23767311
605.67	42.30877872
605.862	42.36079387
606.054	42.44461607
606.246	42.52475692
606.437	42.58609907
606.629	42.67680523
606.821	42.73580729
607.013	42.82787839
607.205	42.88541735
607.397	42.93640032
607.588	42.99025138
607.78	43.06799647
607.972	43.14537619
608.164	43.21698568
608.355	43.26655045
608.547	43.32881286
608.739	43.4339044
608.93	43.51586809
609.122	43.58085535
609.314	43.65309158
609.505	43.73145882
609.697	43.79896052
609.889	43.88716262
610.08	43.94315657
610.272	44.01384999
610.463	44.07626287
610.655	44.14813166
610.847	44.25437436
611.038	44.32485121
611.23	44.39737015
611.421	44.49218285
611.613	44.56068597
611.804	44.65381564
611.996	44.71587054
612.187	44.7922377
612.379	44.88176278
612.57	44.98197887
612.761	45.03137586
612.953	45.10233538
613.144	45.18498939
613.336	45.27588958
613.527	45.33825456
613.718	45.41369391
613.91	45.46548832
614.101	45.53628494
614.292	45.60249655
614.483	45.68745658
614.675	45.73130963
614.866	45.75388131
615.057	45.79567731
615.248	45.86452311
615.44	45.90679026
615.631	45.95958043
615.822	46.00675932
616.013	46.06322672
616.204	46.08331474
616.396	46.12703587
616.587	46.11180351
616.778	46.15571106
616.969	46.19415782
617.16	46.23237399
617.351	46.22945333
617.542	46.25189499
617.733	46.28096726
617.924	46.31999703
618.115	46.34134657
618.306	46.31318626
618.497	46.28666144
618.688	46.31423681
618.879	46.35051419
619.07	46.37122564
619.261	46.38474061
619.452	46.42064682
619.643	46.45589553
619.834	46.45801647
620.025	46.4956295
620.216	46.51915374
620.407	46.56567388
620.597	46.61152086
620.788	46.63171693
620.979	46.65949922
621.17	46.65893519
621.361	46.71852625
621.551	46.76278263
621.742	46.78725836
621.933	46.79036368
622.124	46.83777672
622.314	46.89458599
622.505	46.94734501
622.696	46.97186601
622.886	47.007793
623.077	47.04597802
623.268	47.06047067
623.458	47.0790861
623.649	47.09699381
623.84	47.13216273
624.03	47.1438661
624.221	47.18599621
624.411	47.1563968
624.602	47.18600158
624.792	47.21339931
624.983	47.21425609
625.173	47.23164393
625.364	47.27062594
625.554	47.27796185
625.745	47.3144464
625.935	47.34498525
626.126	47.36096256
626.316	47.39357122
626.507	47.41767155
626.697	47.43356371
626.887	47.44786057
627.078	47.48015927
627.268	47.53444856
627.458	47.56895883
627.649	47.588643
627.839	47.61093843
628.029	47.6422755
628.22	47.67047055
628.41	47.71249465
628.6	47.7434962
628.79	47.78561225
628.981	47.8304951
629.171	47.89118944
629.361	47.89077042
629.551	47.93493455
629.741	47.94852469
629.932	47.97622105
630.122	48.02177403
630.312	48.07323745
630.502	48.12598297
630.692	48.17449211
630.882	48.21301748
631.072	48.23062181
631.262	48.23877802
631.452	48.25733994
631.642	48.28989446
631.832	48.31194569
632.022	48.32390251
632.212	48.35574729
632.402	48.40515139
632.592	48.43058214
632.782	48.4339266
632.972	48.48328623
633.162	48.51021843
633.352	48.5317606
633.542	48.53323644
633.732	48.57135283
633.922	48.60677724
634.111	48.61393081
634.301	48.62806649
634.491	48.6345782
634.681	48.64965607
634.871	48.67359871
635.06	48.69066594
635.25	48.71741472
635.44	48.76085639
635.63	48.79279575
635.819	48.82134843
636.009	48.85300621
636.199	48.87871598
636.388	48.90717503
636.578	48.92515841
636.768	48.96303557
636.957	48.98824224
637.147	49.00748724
637.337	49.02818087
637.526	49.07550586
637.716	49.08701426
637.905	49.10918914
638.095	49.17026183
638.284	49.18892331
638.474	49.23686728
638.663	49.2641093
638.853	49.27851092
639.042	49.3126447
639.232	49.34694788
639.421	49.34654301
639.611	49.36151046
639.8	49.38878947
639.99	49.39494106
640.179	49.42195047
640.368	49.4254411
640.558	49.45786485
640.747	49.46983394
640.936	49.46719937
641.126	49.48293727
641.315	49.51270121
641.504	49.5416614
641.694	49.56078251
641.883	49.57657984
642.072	49.56956252
642.261	49.59171793
642.451	49.5863476
642.64	49.59676862
642.829	49.61549551
643.018	49.61781632
643.207	49.60854936
643.397	49.63704198
643.586	49.67750196
643.775	49.6870033
643.964	49.74931499
644.153	49.71931324
644.342	49.72195166
644.531	49.72155457
644.72	49.71983932
644.909	49.71750214
645.098	49.69165223
645.287	49.71701334
645.476	49.70822081
645.665	49.69934927
645.854	49.7035614
646.043	49.70628325
646.232	49.7110845
646.421	49.71887759
646.61	49.72877957
646.799	49.71314787
646.988	49.72634554
647.177	49.73749017
647.365	49.71225395
647.554	49.68821964
647.743	49.67644401
647.932	49.64389279
648.121	49.6610718
648.309	49.66510595
648.498	49.68567857
648.687	49.71669131
648.876	49.7452271
649.064	49.77084749
649.253	49.73775809
649.442	49.76294531
649.63	49.76682657
649.819	49.75072919
650.008	49.72462561
650.196	49.70659294
650.385	49.70158823
650.574	49.73169579
650.762	49.76656141
650.951	49.76102086
651.139	49.77116779
651.328	49.79506003
651.516	49.82082209
651.705	49.85061829
651.893	49.88217571
652.082	49.90076474
652.27	49.91489406
652.459	49.89839947
652.647	49.8850554
652.836	49.86591178
653.024	49.8883172
653.213	49.92114211
653.401	49.91698433
653.589	49.91898585
653.778	49.9453585
653.966	50.00022734
654.154	50.00568738
654.343	50.0162516
654.531	50.00751047
654.719	49.986287
654.908	50.00527276
655.096	49.98164777
655.284	49.98600626
655.472	49.97706612
655.661	49.95806545
655.849	49.92308255
656.037	49.91165452
656.225	49.90826241
656.413	49.88494595
656.601	49.8819032
656.79	49.85746593
656.978	49.81136562
657.166	49.81036058
657.354	49.79356357
657.542	49.80731398
657.73	49.81595577
657.918	49.79771114
658.106	49.7927431
658.294	49.77440068
658.482	49.76138247
658.67	49.75750245
658.858	49.75555187
659.046	49.79837308
659.234	49.79192772
659.422	49.8065481
659.61	49.8322523
659.798	49.83750637
659.986	49.86490974
660.173	49.88830632
660.361	49.94426442
660.549	49.95236387
660.737	50.00864416
660.925	50.06604188
661.113	50.07981721
661.3	50.12649768
661.488	50.15701456
661.676	50.17509107
661.864	50.19592333
662.051	50.22211316
662.239	50.28851301
662.427	50.32644365
662.614	50.36253104
662.802	50.39697329
662.99	50.39397942
663.177	50.43102706
663.365	50.43321116
663.553	50.44589007
663.74	50.52146294
663.928	50.53752428
664.115	50.58576302
664.303	50.63609051
664.49	50.6952913
664.678	50.72882513
664.866	50.74860995
665.053	50.76331705
665.24	50.78147023
665.428	50.80878273
665.615	50.83734696
665.803	50.83503234
665.99	50.89435098
666.178	50.8906145
666.365	50.91934398
666.552	50.94973424
666.74	50.97086404
666.927	51.0130738
667.114	51.03395673
667.302	51.05595447
667.489	51.07564111
667.676	51.05445011
667.864	51.08185855
668.051	51.04257141
668.238	51.04089765
668.425	51.03834013
668.613	51.04440246
668.8	51.08059902
668.987	51.08606011
669.174	51.12254008
669.361	51.12361299
669.548	51.16033223
669.736	51.20304583
669.923	51.17780889
670.11	51.2091925
670.297	51.2057444
670.484	51.21370152
670.671	51.23509284
670.858	51.24406409
671.045	51.28374105
671.232	51.33774781
671.419	51.36331493
671.606	51.39655598
671.793	51.41061856
671.98	51.45001296
672.167	51.44282746
672.354	51.50510532
672.541	51.50388103
672.728	51.509725
672.915	51.5401996
673.101	51.52394061
673.288	51.55832874
673.475	51.58001181
673.662	51.63654312
673.849	51.68130334
674.035	51.69091151
674.222	51.71852652
674.409	51.74205674
674.596	51.73680526
674.783	51.77489789
674.969	51.79837729
675.156	51.81567402
675.343	51.81418582
675.529	51.85371992
675.716	51.89320293
675.903	51.90174481
676.089	51.9201627
676.276	51.91588887
676.462	51.94681303
676.649	51.95918819
676.836	51.98814848
677.022	52.01098717
677.209	52.03420787
677.395	52.02957994
677.582	52.01112248
677.768	52.04803016
677.955	52.06946233
678.141	52.07916279
678.328	52.10525395
678.514	52.13211968
678.701	52.15444019
678.887	52.15549495
679.073	52.17329784
679.26	52.21001973
679.446	52.25625173
679.632	52.28020024
679.819	52.33491898
680.005	52.36520898
680.191	52.39052416
680.378	52.47156647
680.564	52.50580297
680.75	52.54590147
680.936	52.58122288
681.123	52.64069091
681.309	52.72855514
681.495	52.77546332
681.681	52.82559608
681.867	52.86795347
682.054	52.93546454
682.24	53.0123961
682.426	53.09227515
682.612	53.13199913
682.798	53.20951652
682.984	53.26230465
683.17	53.3613833
683.356	53.41099098
683.542	53.47491374
683.728	53.5519327
683.914	53.65518138
684.1	53.74552913
684.286	53.78704215
684.472	53.87537601
684.658	53.97840759
684.844	54.07297988
685.03	54.16992476
685.216	54.2113712
685.402	54.29594333
685.588	54.35547953
685.774	54.42839444
685.96	54.53516002
686.145	54.58622553
686.331	54.6763522
686.517	54.77709842
686.703	54.83887061
686.889	54.89792912
687.074	54.96655895
687.26	55.01130329
687.446	55.05950012
687.631	55.11394691
687.817	55.18225787
688.003	55.22566648
688.189	55.26308995
688.374	55.33393396
688.56	55.39444065
688.745	55.44084925
688.931	55.48008923
689.117	55.54013221
689.302	55.59239542
689.488	55.66256199
689.673	55.73304959
689.859	55.75793933
690.044	55.82971609
690.23	55.86335831
690.415	55.91931481
690.601	55.94119598
690.786	55.99536839
690.972	56.04209363
691.157	56.10152635
691.343	56.20897857
691.528	56.23021388
691.713	56.28348728
691.899	56.33717751
692.084	56.40670186
692.269	56.45552466
692.455	56.49643848
692.64	56.56196937
692.825	56.60797283
693.011	56.65693932
693.196	56.69635571
693.381	56.7291949
693.566	56.7807598
693.752	56.81900905
693.937	56.88248291
694.122	56.91635242
694.307	56.9426417
694.492	56.98661119
694.678	57.04178435
694.863	57.02861049
695.048	57.07163019
695.233	57.03916698
695.418	57.08434282
695.603	57.05969482
695.788	57.06199146
695.973	57.10854963
696.158	57.14868514
696.343	57.14292028
696.528	57.15881266
696.713	57.15907756
696.898	57.16337104
697.083	57.17174238
697.268	57.20347292
697.453	57.22153496
697.638	57.21905084
697.823	57.20172842
698.008	57.23961896
698.192	57.25675068
698.377	57.29918195
698.562	57.31275255
698.747	57.37774447
698.932	57.39789828
699.117	57.43088784
699.301	57.47149432
699.486	57.51905618
699.671	57.58642404
699.856	57.61309179
700.04	57.62863416
700.225	57.67071122
700.41	57.69688978
700.594	57.76983662
700.779	57.84465019
700.964	57.92652355
701.148	57.98036863
701.333	58.06490737
701.517	58.15394329
701.702	58.19236152
701.887	58.24328157
702.071	58.30176166
702.256	58.4005814
702.44	58.46717883
702.625	58.48736795
702.809	58.53378943
702.994	58.59665155
703.178	58.67008299
703.362	58.73931663
703.547	58.79398896
703.731	58.84792927
703.916	58.88777393
704.1	58.97394554
704.284	59.01920514
704.469	59.0098719
704.653	59.04298347
704.837	59.06891431
705.022	59.09721981
705.206	59.11598326
705.39	59.17242254
705.575	59.25726157
705.759	59.28385895
705.943	59.34418738
706.127	59.35598236
706.311	59.45422645
706.496	59.5211009
706.68	59.58617339
706.864	59.64505221
707.048	59.65056164
707.232	59.73296616
707.416	59.78737187
707.6	59.80726392
707.785	59.88135069
707.969	59.89140927
708.153	59.977755
708.337	60.04409418
708.521	60.04555555
708.705	60.1089725
708.889	60.09881059
709.073	60.12757445
709.257	60.12950871
709.441	60.14222675
709.624	60.14832198
709.808	60.15981726
709.992	60.18201899
710.176	60.15182625
710.36	60.11336192
710.544	60.107051
710.728	60.14735028
710.912	60.19356675
711.095	60.15312848
711.279	60.12402595
711.463	60.20180691
711.647	60.18935938
711.83	60.23847817
712.014	60.21037398
712.198	60.23502675
712.382	60.33965764
712.565	60.32924665
712.749	60.36202483
712.933	60.33096182
713.116	60.33071073
713.3	60.3444238
713.483	60.3976345
713.667	60.38045523
713.851	60.36080299
714.034	60.37588391
714.218	60.479177
714.401	60.52649462
714.585	60.48228738
714.768	60.4450614
714.952	60.44556699
715.135	60.49403491
715.319	60.41878409
715.502	60.43316613
715.686	60.4096137
715.869	60.44034893
716.052	60.42338918
716.236	60.3668588
716.419	60.36008816
716.602	60.42768144
716.786	60.46300394
716.969	60.46319601
717.152	60.48474801
717.336	60.46779669
717.519	60.47120442
717.702	60.48419038
717.885	60.44942208
718.069	60.4604821
718.252	60.42698102
718.435	60.45795703
718.618	60.47703454
718.801	60.49141473
718.985	60.45062289
719.168	60.48186675
719.351	60.44807396
719.534	60.46093401
719.717	60.48718973
719.9	60.48439011
720.083	60.47107961
720.266	60.4735637
720.449	60.41918158
720.632	60.43917752
720.815	60.46082276
720.998	60.44218579
721.181	60.44531912
721.364	60.46901561
721.547	60.50593718
721.73	60.5451303
721.913	60.50222677
722.096	60.53048878
722.279	60.5633156
722.461	60.58673961
722.644	60.59984616
722.827	60.69743201
723.01	60.7374034
723.193	60.75906449
723.376	60.81386706
723.558	60.83938491
723.741	60.87001641
723.924	60.88966941
724.107	60.94655945
724.289	60.99435626
724.472	60.99118823
724.655	60.9924389
724.837	61.02344608
725.02	61.03590238
725.203	61.06628839
725.385	61.03841386
725.568	61.0761211
725.75	61.09343244
725.933	61.11866301
726.115	61.14142148
726.298	61.22104529
726.481	61.24438101
726.663	61.15268262
726.845	61.14277823
727.028	61.13368047
727.21	61.07752634
727.393	61.00247002
727.575	61.03299312
727.758	61.02113355
727.94	60.98303298
728.122	60.99889252
728.305	61.03166815
728.487	61.05777561
728.67	61.06283744
728.852	61.02945573
729.034	61.04932811
729.216	61.05443152
729.399	61.09093646
729.581	61.10250928
729.763	61.07984262
729.945	61.09582681
730.128	61.10416906
730.31	61.1250477
730.492	61.11226506
730.674	61.09655624
730.856	61.11416874
731.039	61.11369926
731.221	61.1609835
731.403	61.14391328
731.585	61.14719778
731.767	61.21474024
731.949	61.1893396
732.131	61.22793656
732.313	61.22495586
732.495	61.23511248
732.677	61.3070364
732.859	61.28345851
733.041	61.36119855
733.223	61.3652027
733.405	61.37494357
733.587	61.42737516
733.769	61.37960826
733.951	61.34938379
734.132	61.34781534
734.314	61.45713041
734.496	61.56302523
734.678	61.62336101
734.86	61.67419633
735.042	61.71893103
735.223	61.72029501
735.405	61.71158864
735.587	61.67839522
735.769	61.66343699
735.95	61.63288772
736.132	61.66426244
736.314	61.67069132
736.495	61.69540735
736.677	61.77385543
736.859	61.76614647
737.04	61.7439295
737.222	61.74907374
737.403	61.73500694
737.585	61.7281864
737.767	61.7736733
737.948	61.78464808
738.13	61.76536864
738.311	61.75576501
738.493	61.80990593
738.674	61.82638244
738.856	61.7956164
739.037	61.86035787
739.219	61.99592888
739.4	62.04528548
739.581	62.13756018
739.763	62.07881018
739.944	62.13620427
740.125	62.16886651
740.307	62.12691297
740.488	62.06752009
740.669	62.0210458
740.851	61.99158219
741.032	62.02307192
741.213	61.97986671
741.395	62.05161254
741.576	62.02343915
741.757	62.0389433
741.938	61.98237919
742.119	62.00518129
742.301	62.01264853
742.482	61.93758258
742.663	61.95184807
742.844	62.03671056
743.025	61.97066543
743.206	61.93063094
743.387	61.92392643
743.568	62.01673262
743.749	62.00057944
743.93	61.89462116
744.111	61.90921515
744.292	61.93301995
744.473	62.00577534
744.654	62.02058343
744.835	62.0171035
745.016	62.11499825
745.197	62.08218414
745.378	62.12827465
745.559	62.15529585
745.74	62.22580305
745.921	62.18699986
746.102	62.13787066
746.282	62.21102927
746.463	62.17538703
746.644	62.0681833
746.825	62.09862558
747.006	62.14201265
747.186	62.16873943
747.367	62.24314321
747.548	62.13369268
747.728	62.23379421
747.909	62.27237214
748.09	62.31885102
748.27	62.32680877
748.451	62.34254535
748.632	62.40854251
748.812	62.41546228
748.993	62.43909301
749.173	62.37629561
749.354	62.36704543
749.535	62.43096568
749.715	62.39120434
749.896	62.39028772
750.076	62.4808044
750.257	62.42511874
750.437	62.39552184
750.618	62.3931016
750.798	62.41613006
750.978	62.32060001
751.159	62.21549146
751.339	62.34227719
751.52	62.38521473
751.7	62.34015016
751.88	62.33597031
752.061	62.33209324
752.241	62.36073785
752.421	62.32604585
752.601	62.31623523
752.782	62.32601768
752.962	62.3112964
753.142	62.37487407
753.322	62.36360321
753.503	62.41207414
753.683	62.44724988
753.863	62.44095751
754.043	62.58186671
754.223	62.67662862
754.403	62.63499829
754.583	62.62998158
754.764	62.69783483
754.944	62.65909389
755.124	62.62742216
755.304	62.6241093
755.484	62.70548732
755.664	62.70204013
755.844	62.6986737
756.024	62.69258875
756.204	62.68979588
756.384	62.69137246
756.564	62.58054974
756.743	62.66704548
756.923	62.68229623
757.103	62.67336563
757.283	62.69666447
757.463	62.67855116
757.643	62.64730748
757.823	62.66865979
758.002	62.62780352
758.182	62.65703602
758.362	62.64862336
758.542	62.62650181
758.721	62.69388074
758.901	62.70172433
759.081	62.63633626
759.261	62.59972868
759.44	62.6436374
759.62	62.65565349
759.8	62.74808062
759.979	62.80880555
760.159	62.86065878
760.338	63.02619593
760.518	62.97410192
760.698	62.92475256
760.877	62.94286596
761.057	62.9171529
761.236	62.92658319
761.416	62.90407233
761.595	62.84109392
761.775	62.9350251
761.954	62.90225697
762.133	62.91541371
762.313	62.93434977
762.492	62.99837654
762.672	62.97453047
762.851	63.02007947
763.03	63.02965385
763.21	63.07041462
763.389	63.05147933
763.568	62.98899961
763.748	62.97266334
763.927	62.88722091
764.106	62.84959256
764.286	62.90136237
764.465	62.9225616
764.644	62.93838783
764.823	62.92406902
765.002	63.01886403
765.182	63.03305168
765.361	63.10508434
765.54	62.99327901
765.719	63.0736687
765.898	63.11449255
766.077	63.14110678
766.256	63.14145368
766.435	63.19292624
766.614	63.31921939
766.793	63.32925089
766.972	63.1905158
767.151	63.15865928
767.33	63.23212205
767.509	63.17268047
767.688	63.2007838
767.867	63.28896865
768.046	63.29600916
768.225	63.2867755
768.404	63.31005725
768.583	63.35334898
768.762	63.1742413
768.94	63.28564827
769.119	63.26707877
769.298	63.37780128
769.477	63.39230746
769.656	63.41227528
769.834	63.40886781
770.013	63.46450693
770.192	63.49667715
770.37	63.37298018
770.549	63.40884185
770.728	63.50401002
770.906	63.59915285
771.085	63.6501828
771.264	63.70060313
771.442	63.78536526
771.621	63.63411673
771.799	63.57213896
771.978	63.54928141
772.157	63.43799302
772.335	63.53192891
772.514	63.56736855
772.692	63.4323145
772.871	63.41390903
773.049	63.26335972
773.228	63.19408317
773.406	63.04800067
773.584	63.11742237
773.763	62.98998806
773.941	63.01691426
774.119	63.04396218
774.298	63.0718492
774.476	63.26009429
774.655	63.18398921
774.833	63.13260539
775.011	62.98265969
775.189	62.98678961
775.368	63.06468017
775.546	63.16912801
775.724	63.19593022
775.902	63.22088991
776.08	63.12734498
776.259	63.26135338
776.437	63.15752733
776.615	63.24618262
776.793	63.26291558
776.971	63.30592173
777.149	63.44797393
777.327	63.22044661
777.505	63.27215545
777.683	63.24129388
777.861	63.01038706
778.04	63.09465171
778.218	62.97146618
778.395	63.0550567
778.573	63.02834478
778.751	63.10073658
778.929	63.07026554
779.107	63.09037466
779.285	62.97738411
779.463	62.97928253
779.641	62.97247809
779.819	62.89776031
779.997	62.69987837
780.174	62.93301554
780.352	62.85897661
780.53	63.1655897
780.708	63.24448845
780.886	63.22073979
781.063	63.31785404
781.241	63.20134169
781.419	63.2599018
781.596	63.40272578
781.774	63.35368237
781.952	63.13403169
782.129	63.09632297
782.307	63.03953716
782.485	63.20012747
782.662	63.27807766
782.84	63.15135865
783.017	63.29670033
783.195	63.35031588
783.372	63.19850512
783.55	63.3643144
783.727	63.45786169
783.905	63.23711901
784.082	63.09049952
784.26	62.80564664
784.437	62.83759553
784.615	62.89691515
784.792	62.96382872
784.969	63.00620827
785.147	62.90776324
785.324	63.05409264
785.501	62.97442389
785.679	63.26645126
785.856	63.13457435
786.033	63.16893384
786.211	63.18954685
786.388	63.06541848
786.565	63.12254737
786.742	63.06929642
786.92	63.03534783
787.097	63.35832139
787.274	63.30136225
787.451	63.23636848
787.628	63.3039609
787.805	63.52734272
787.982	63.59181254
788.16	63.66696578
788.337	63.41965766
788.514	63.50997333
788.691	63.68279659
788.868	63.60071727
789.045	63.38562765
789.222	63.39864213
789.399	63.34052895
789.576	63.54538037
789.753	63.41435342
789.93	63.21847229
790.106	63.19937805
790.283	63.20851639
790.46	63.00413178
790.637	63.00573763
790.814	62.8372289
790.991	62.89548183
791.168	63.07361598
791.344	63.18830821
791.521	63.09655722
791.698	63.03871029
791.875	62.82722217
792.051	62.96900025
792.228	62.7895546
792.405	62.46962935
792.581	62.64601306
792.758	62.95020375
792.935	63.14529082
793.111	63.1125024
793.288	63.06157763
793.465	63.15043318
793.641	63.28248597
793.818	63.61537154
793.994	63.56899154
794.171	63.67598428
794.347	63.73518657
794.524	63.80542372
794.7	63.70012021
794.877	63.59878219
795.053	63.55913757
795.23	63.72652247
795.406	63.8549526
795.583	63.78399171
795.759	63.93180323
795.935	64.13366617
796.112	64.2693552
796.288	64.38216101
796.464	64.49457532
796.641	64.20486752
796.817	64.10969818
796.993	64.28716973
797.169	64.5226012
797.346	64.643047
797.522	64.56367219
797.698	64.63927798
797.874	64.58214931
798.051	64.38322565
798.227	64.24399867
798.403	64.22419749
798.579	64.10565578
798.755	64.18713967
798.931	63.88883255
799.107	63.78281419
799.283	63.99645894
799.459	63.83878807
799.635	63.98839283
799.811	63.87085862
799.987	63.94551539
800.163	63.72885467
800.339	63.66711529
800.515	63.86389222
800.691	63.79989909
800.867	63.72784077
801.043	63.8379892
801.219	63.63663513
801.395	63.81464756
801.571	64.06089984
801.746	64.33169543
801.922	64.4954009
802.098	64.53120069
802.274	64.76139642
802.45	64.79036152
802.625	65.21452921
802.801	65.14493493
802.977	65.19035904
803.152	65.4976862
803.328	65.0237126
803.504	65.20810414
803.679	64.96232465
803.855	64.46241713
804.031	64.33014877
804.206	64.16770282
804.382	64.11126796
804.557	63.86010044
804.733	63.64249689
804.909	63.67387864
805.084	63.48373382
805.26	63.51027613
805.435	63.63035128
805.61	63.55005582
805.786	63.72077058
805.961	63.60818405
806.137	63.45823037
806.312	63.53195929
806.488	63.93111334
806.663	63.70664643
806.838	63.33071938
807.014	63.73649419
807.189	63.76666636
807.364	64.07332202
807.54	64.81743104
807.715	65.20975517
807.89	65.25040435
808.065	65.08600061
808.241	64.98526266
808.416	65.22659848
808.591	65.58690141
808.766	65.29442312
808.941	65.17007642
809.116	64.99061953
809.291	64.98060982
809.467	64.96606922
809.642	64.97101558
809.817	64.94111795
809.992	64.6251677
810.167	64.21402109
810.342	64.27977517
810.517	64.56062613
810.692	64.37489483
810.867	64.4588779
811.042	64.17828634
811.217	64.17019216
811.392	64.61839347
811.567	64.70158831
811.741	64.76123377
811.916	65.23123304
812.091	64.86351633
812.266	64.5377597
812.441	65.23149912
812.616	65.73679596
812.79	65.07299316
812.965	65.06729889
813.14	64.98247113
813.315	65.06776191
813.489	64.62610567
813.664	64.4068856
813.839	64.66931532
814.013	64.94876318
814.188	64.87326369
814.363	64.89959739
814.537	64.47412855
814.712	64.42361622
814.887	63.98790049
815.061	63.68743177
815.236	63.51915147
815.41	63.49151035
815.585	63.57019271
815.759	63.79503773
815.934	63.63997802
816.108	63.7530921
816.283	63.07888417
816.457	63.54896766
816.631	63.86292147
816.806	63.99865424
816.98	63.97139305
817.155	64.3499269
817.329	64.74216207
817.503	64.96172346
817.678	64.8753627
817.852	64.63663516
818.026	64.50067339
818.201	65.17825453
818.375	65.16533598
818.549	65.40872866
818.723	65.3088042
818.897	65.34998121
819.072	65.64283223
819.246	65.62519125
819.42	65.51657306
819.594	65.60399406
819.768	65.57582465
819.942	65.52933131
820.116	65.6271737
820.29	65.62739523
820.465	65.61866091
820.639	65.69193795
820.813	65.72614412
820.987	65.66936633
821.161	65.63550529
821.335	65.5015293
821.509	65.68733937
821.682	65.73968056
821.856	65.62037672
822.03	65.66027017
822.204	65.5618341
822.378	65.5910704
822.552	65.55490652
822.726	65.46257094
822.9	65.40518101
823.073	65.5011544
823.247	65.35644104
823.421	65.23554497
823.595	65.61603956
823.768	65.47201151
823.942	65.33352201
824.116	65.03315444
824.289	65.0221185
824.463	64.96814065
824.637	64.94487799
824.81	64.72598868
824.984	64.9158199
825.158	64.77192112
825.331	64.87602437
825.505	64.56194107
825.678	64.64253096
825.852	64.62916837
826.025	64.69118308
826.199	64.86340297
826.372	64.74990887
826.546	64.55307851
826.719	64.55829366
826.893	64.54169697
827.066	64.5199234
827.24	64.23965416
827.413	64.32341098
827.586	64.1121539
827.76	64.39310096
827.933	64.01686916
828.106	64.39875862
828.28	64.04450866
828.453	63.89110164
828.626	64.60724461
828.799	64.75651954
828.973	64.89785967
829.146	65.49109911
829.319	65.10983679
829.492	65.62979692
829.665	65.37036718
829.839	65.38598666
830.012	65.09170291
830.185	65.47091656
830.358	65.47780427
830.531	65.24068264
830.704	65.41099473
830.877	64.59675417
831.05	64.43897342
831.223	64.64710975
831.396	64.70787134
831.569	64.79344161
831.742	64.89309773
831.915	65.20597315
832.088	65.08588551
832.261	64.64089979
832.434	64.65345816
832.607	64.59310324
832.779	64.53207929
832.952	65.07921787
833.125	65.21919535
833.298	65.08598402
833.471	64.53527845
833.643	64.44345387
833.816	63.95797471
833.989	63.15867346
834.162	64.62704356
834.334	64.83159228
834.507	66.1973998
834.68	66.77677377
834.852	66.99662347
835.025	67.18098542
835.198	67.5077158
835.37	65.80178361
835.543	65.91758991
835.715	67.46843274
835.888	66.30834821
836.061	66.82897818
836.233	66.850074
836.406	65.37473644
836.578	64.50528148
836.751	64.51444832
836.923	66.54812998
837.095	68.80895485
837.268	68.82113309
837.44	69.74042241
837.613	70.3267691
837.785	69.04730704
837.957	68.80750415
838.13	68.69135802
838.302	68.67578672
838.474	68.96029378
838.647	67.97297923
838.819	68.01364347
838.991	69.73123173
839.163	69.60574191
839.336	68.58680887
839.508	68.71749067
839.68	69.9386836
839.852	69.45102142
840.024	71.40125486
840.196	71.19211574
840.368	71.38291497
840.541	69.44235375
840.713	65.93149422
840.885	65.29252398
841.057	64.17731928
841.229	66.71654722
841.401	65.55779299
841.573	66.10958676
841.745	66.29509348
841.917	67.19878712
842.089	65.27866752
842.261	66.9450962
842.432	70.24339426
842.604	69.51629964
842.776	67.12556592
842.948	67.54427956
843.12	67.76884123
843.292	63.55787572
843.464	63.05495188
843.635	63.38349766
843.807	63.68224488
843.979	61.31576217
844.151	63.08847185
844.322	65.03435489
844.494	67.3825357
844.666	70.20762386
844.837	67.70979968
845.009	67.94828931
845.181	67.01210865
845.352	66.26796884
845.524	61.12859974
845.695	59.14778492
845.867	59.89419322
846.039	55.54098361
846.21	56.32582322
846.382	58.31554986
846.553	58.99371069
846.725	64.36640806
846.896	61.9047619
847.068	64.9637114
847.239	65.14829005
847.41	64.55353109
847.582	63.94223612
847.753	56.58426966
847.925	57.65992022
848.096	61.0393467
848.267	62.224523
848.439	62.36542362
848.61	62.25528583
848.781	63.42399466
848.952	64.89380376
849.124	70.69060267
849.295	75.76475232
849.466	70.90521074
849.637	70.05660033
849.808	67.84589739
849.98	72.72896848
850.151	71.18287789
850.322	66.9250646
850.493	67.74582747
850.664	70.92511013
850.835	72.23748151
851.006	75.01564129
851.177	76.7758962
851.348	86.13525546
851.519	87.81814227
851.69	85.11544497
851.861	82.08887886
852.032	84.45114876
852.203	82.1323028
852.374	83.29892177
852.545	76.66118807
852.716	74.48913745
852.887	78.73498073
853.057	83.29216259
853.228	79.25206
853.399	79.56020942
853.57	74.19223735
853.741	75.47532579
853.911	78.50010622
854.082	85.28276175
854.253	80.04791984
854.424	75.29930687
854.594	72.45581962
854.765	68.26904055
854.936	70.09155646
855.106	66.49082085
855.277	67.16044231
855.447	65.92441267
855.618	67.47624076
855.789	75.13061651
855.959	69.36517181
856.13	71.62430142
856.3	72.51685803
856.471	72.74492498
856.641	72.09661836
856.812	77.597335
856.982	73.83258016
857.153	68.19557625
857.323	65.8787737
857.493	62.47865333
857.664	54.16762342
857.834	52.59604191
858.004	53.59064327
858.175	49.3135269
858.345	55.14943023
858.515	50.0753823
858.686	51.91256831
858.856	52.40768732
859.026	57.73877365
859.196	51.56468009
859.367	48.61911385
859.537	49.00731452
859.707	51.234696
859.877	43.8845727
860.047	38.36536235
860.217	41.47104851
860.387	39.87625347
860.558	36.95154918
860.728	47.04087858
860.898	58.47303575
861.068	57.61242186
861.238	64.94757115
861.408	62.37869089
861.578	60.44189505
861.748	60.92102432
861.918	62.61376896
862.088	61.38635859
862.257	61.71856143
862.427	58.08466343
862.597	58.79971422
862.767	62.21043818
862.937	68.27009262
863.107	68.81202155
863.277	62.83296772
863.446	69.49363156
863.616	72.0849084
863.786	79.09270217
863.956	74.19703104
864.125	83.55695118
864.295	75.61470215
864.465	62.40057845
864.634	74.95386238
864.804	73.73985739
864.974	79.6327212
865.143	89.62665998
865.313	95.31740285
865.482	85.32151784
865.652	85.28276175
865.822	93.89145243
865.991	85.40021345
866.161	80.61465721
866.33	86.96730552
866.5	79.92482865
866.669	74.47806709
866.838	73.12486795
867.008	72.29263954
867.177	73.64850077
867.347	64.9570666
867.516	69.7320782
867.685	66.91263985
867.855	76.29053178
868.024	90.69503546
868.193	69.02536716
868.363	66.60402685
868.532	60.18493337
868.701	55.91315453
868.87	56.10552081
869.04	65.8671078
869.209	73.75405485
869.378	60.73423783
869.547	67.4115983
869.716	68.17310326
869.885	62.67942584
870.055	54.10479126
870.224	58.93181229
870.393	58.14648729
870.562	56.96434014
870.731	50.8173913
870.9	54.54852891
871.069	60.35778175
871.238	71.9844358
871.407	66.63190824
871.576	54.44481718
871.745	69.25456233
871.914	69.87115956
872.083	73.49031523
872.251	75.74612769
872.42	73.11942959
872.589	68.23251098
872.758	59.4796748
872.927	68.11178789
873.096	66.71969456
873.264	64.50392784
873.433	72.72982851
873.602	78.48132575
873.771	78.34871539
873.939	90.1706137
874.108	92.3738153
874.277	91.94744649
874.445	92.69834795
874.614	87.70104068
874.783	78.30615052
874.951	72.35676314
875.12	75.50063143
875.288	74.74657656
875.457	71.91768978
875.625	72.5306054
875.794	74.39004943
875.962	73.5658559
876.131	71.62597881
876.299	70.93649085
876.468	71.81637944
876.636	79.15393276
876.805	81.09532173
876.973	77.72891472
877.141	82.97144811
877.31	85.0931677
877.478	76.50229903
877.647	76.92685322
877.815	81.64311228
877.983	79.75807686
878.151	81.40461564
878.32	89.79301627
878.488	97.85609875
878.656	96.55959277
878.824	97.68971033
878.992	103.96076254
879.161	107.45017694
879.329	110.18128548
879.497	113.1002612
879.665	116.30975557
879.833	121.81309718
880.001	113.44421344
880.169	100.2663707
880.337	101.79865101
880.505	103.91106349
880.673	96.57952602
880.841	99.74956173
881.009	114.83779972
881.177	114.90262489
881.345	113.73712145
881.513	113.61120156
881.681	118.83913765
881.849	109.50455005
882.017	90.42804179
882.185	89.86368403
882.352	78.85783718
882.52	71.61033797
882.688	63.71272575
882.856	37.71462404
883.024	16.41255605
883.191	15.37793223
883.359	27.07581227
883.527	23.56185973
883.694	14.15863603
883.862	22.56376717
884.03	13.87245233
884.197	19.39513478
884.365	10.52166225
884.533	2.54403131
884.7	4.89317712
884.868	6.61710037
885.035	18.97435897
885.203	-8.61660079
885.37	-23.05630027
885.538	-2.86351804
885.705	-4.00943396
885.873	28.90113676
886.04	25.92847318
886.208	20.30075188
886.375	31.92960402
886.542	51.50012398
886.71	62.67942584
886.877	57.64705882
