Data from gv_q_Reflection_00001.txt Node
Date: Thu Nov 23 12:46:36 AEST 2023
User: uqkchene_local
Spectrometer: USB4E02642
Trigger mode: 4
Integration Time (sec): 2.340000E-1
Scans to average: 10
Electric dark correction enabled: true
Nonlinearity correction enabled: false
Boxcar width: 10
XAxis mode: Wavelengths
Number of Pixels in Spectrum: 3648
>>>>>Begin Spectral Data<<<<<
179.217	106.28272251
179.432	123.68421053
179.647	132.52799057
179.862	139.14438503
180.077	130.74003795
180.293	136.17300131
180.508	120.83936324
180.723	23.13432836
180.938	255.91647332
181.153	-231.84931507
181.368	-231.91489362
181.583	-139.05325444
181.798	-126.95035461
182.013	-101.00908174
182.228	-25.26645768
182.443	9.32619366
182.658	15.04292647
182.873	21.2706322
183.088	21.21212121
183.303	21.00125156
183.518	26.57326051
183.733	19.14053936
183.948	18.86586696
184.162	23.83802115
184.377	20.58334872
184.592	17.85901697
184.807	15.24360033
185.022	11.86701555
185.237	10.41394336
185.452	15.23344948
185.667	17.56090691
185.882	17.6900013
186.096	17.41935484
186.311	17.43555849
186.526	18.92321973
186.741	14.30454845
186.956	10.32249359
187.17	12.25087108
187.385	11.56701309
187.6	5.69359648
187.815	1.34770889
188.03	1.85318201
188.244	-0.14051522
188.459	-1.21109919
188.674	2.54689645
188.889	9.62710903
189.103	10.00426925
189.318	12.59808817
189.533	12.15036259
189.747	12.79426817
189.962	8.80453615
190.177	6.63008688
190.391	4.2368877
190.606	6.15730337
190.821	7.43117957
191.035	8.57384204
191.25	13.17982766
191.465	11.22320303
191.679	10.78973486
191.894	8.44849694
192.109	10.37088873
192.323	12.39715521
192.538	10.98088461
192.752	11.29143172
192.967	13.25700097
193.181	8.44942065
193.396	5.28581036
193.611	0.60232526
193.825	-1.34770889
194.04	-10.71594248
194.254	-13.05869254
194.469	-11.88194127
194.683	-16.27906977
194.898	-10.85450346
195.112	-8.07843137
195.327	-8.45326716
195.541	-13.06202239
195.756	-14.0323422
195.97	-13.97209302
196.184	-12.03784826
196.399	-12.44775577
196.613	-16.99111699
196.828	-17.62989973
197.042	-16.6880381
197.257	-12.17284384
197.471	-16.94081736
197.685	-17.28963358
197.9	-20.87870105
198.114	-16.80150517
198.328	-18.43850673
198.543	-7.22194679
198.757	-7.17451978
198.971	-6.36557028
199.186	-2.36244475
199.4	-4.56628219
199.614	-10.08808376
199.829	-10.10682005
200.043	-9.58861254
200.257	-13.83964872
200.471	-17.71019678
200.686	-20.11543032
200.9	-18.62826702
201.114	-13.90859594
201.328	-8.78843892
201.543	-8.99076624
201.757	-10.43043689
201.971	-6.31760464
202.185	-3.90001506
202.399	-0.0150989
202.614	-0.62746243
202.828	0.66020508
203.042	3.56593483
203.256	-1.20649008
203.47	4.2962963
203.684	8.27672258
203.899	4.01817407
204.113	0.09891197
204.327	3.18890319
204.541	1.38785256
204.755	5.43811051
204.969	7.07674783
205.183	9.55570745
205.397	5.94759462
205.611	2.28500208
205.825	-1.79675147
206.039	-4.22780764
206.253	-4.16002319
206.467	-7.10416344
206.681	-8.8809115
206.895	-7.84103115
207.109	0.16499175
207.323	-2.93057514
207.537	-5.73493976
207.751	-4.06083158
207.965	-6.9470143
208.179	-10.09705432
208.393	-3.64243677
208.607	-0.51457976
208.821	-6.02842673
209.035	-4.5144939
209.249	-6.71700488
209.463	-0.94382022
209.677	-4.26889803
209.891	0.65674843
210.104	1.04180404
210.318	3.46042532
210.532	1.97427079
210.746	1.42688834
210.96	-3.14384704
211.174	0.08707551
211.387	-3.5487486
211.601	-6.97081687
211.815	-2.1266134
212.029	-4.18868411
212.243	0.46290504
212.456	-0.33469691
212.67	4.42673207
212.884	3.10860944
213.098	5.93730793
213.311	5.16105856
213.525	6.0810013
213.739	7.78356131
213.953	3.31076923
214.166	6.19376711
214.38	4.77829252
214.594	3.09000135
214.807	-1.71821306
215.021	0.96516995
215.235	2.67553986
215.448	7.42214296
215.662	3.33667478
215.876	4.27686263
216.089	0.64169527
216.303	-0.58514629
216.516	-4.04504371
216.73	-6.79466027
216.944	-6.94891855
217.157	-11.69755374
217.371	-9.91869919
217.584	-10.54139647
217.798	-7.5786118
218.011	-3.00014219
218.225	-4.20025456
218.439	-6.55614167
218.652	-12.58669028
218.866	-15.60141691
219.079	-11.22651596
219.293	-10.34688105
219.506	-11.2557314
219.719	-15.25169046
219.933	-14.03937347
220.146	-15.28073916
220.36	-16.5074667
220.573	-17.54222636
220.787	-19.97363217
221	-18.41020869
221.214	-20.30682277
221.427	-20.85575535
221.64	-23.70380398
221.854	-26.08074776
222.067	-26.57955005
222.28	-28.21997106
222.494	-39.56151376
222.707	-40.39536469
222.92	-27.01587698
223.134	-22.98751082
223.347	-21.66811038
223.56	-19.79081929
223.774	-18.70394198
223.987	-18.26126433
224.2	-14.43907676
224.414	-13.45333472
224.627	-11.77747906
224.84	-11.47609583
225.053	-8.97240045
225.267	-7.28781366
225.48	-6.83442951
225.693	-6.82630105
225.906	-6.35346342
226.119	-6.11618032
226.333	-5.67421395
226.546	-5.56480589
226.759	-3.6561682
226.972	-0.86752638
227.185	0.84494177
227.398	-3.47964521
227.612	-3.02897599
227.825	-0.5383486
228.038	0.71687035
228.251	1.74975239
228.464	2.68331732
228.677	2.4537126
228.89	0.9920249
229.103	1.0304
229.316	1.47013213
229.529	4.57909622
229.743	2.68628269
229.956	5.36133204
230.169	6.85006878
230.382	7.72753901
230.595	8.74567876
230.808	9.54525212
231.021	8.11019443
231.234	8.80656082
231.447	8.69257951
231.66	8.95542983
231.872	8.26182668
232.085	8.54053096
232.298	6.82497725
232.511	5.37940555
232.724	5.95486037
232.937	4.94489499
233.15	4.38285924
233.363	6.70991442
233.576	7.76252291
233.789	8.40670783
234.002	5.70907661
234.214	7.2987416
234.427	5.35201756
234.64	5.47790439
234.853	4.00755549
235.066	3.69336287
235.279	3.30713332
235.491	3.29115377
235.704	2.73961333
235.917	3.66150067
236.13	3.76140663
236.342	4.29153569
236.555	4.06649896
236.768	4.45846864
236.981	3.92473629
237.193	3.84418247
237.406	3.56747102
237.619	3.21459867
237.832	2.62776446
238.044	2.36897247
238.257	2.1520232
238.47	2.12567048
238.682	2.40122077
238.895	2.56641614
239.108	1.95518517
239.32	2.36469992
239.533	2.29757289
239.746	2.2235522
239.958	2.38436503
240.171	2.42283589
240.383	2.30454759
240.596	2.29554939
240.808	2.38892462
241.021	2.53139655
241.234	2.48441539
241.446	2.76666066
241.659	2.526338
241.871	2.64157723
242.084	2.84661131
242.296	2.90984609
242.509	2.78363772
242.721	2.73572123
242.934	2.75243113
243.146	2.6186312
243.359	2.56899281
243.571	2.60387973
243.784	2.54381834
243.996	2.63090113
244.208	2.65833561
244.421	2.56702195
244.633	2.57132351
244.846	2.54318327
245.058	2.52096596
245.27	2.44875322
245.483	2.42463871
245.695	2.46189182
245.907	2.43589974
246.12	2.45925971
246.332	2.48738221
246.544	2.4803231
246.757	2.45601328
246.969	2.5592825
247.181	2.61227336
247.394	2.6859785
247.606	2.6860093
247.818	2.68480254
248.03	2.79800075
248.243	2.86111245
248.455	2.8055562
248.667	2.86168645
248.879	2.92736632
249.092	2.98621481
249.304	2.91298344
249.516	2.88406523
249.728	2.82082086
249.94	2.81237614
250.153	2.75868557
250.365	2.8882985
250.577	2.98242172
250.789	2.99453085
251.001	2.94145072
251.213	3.02236065
251.425	3.01935165
251.637	3.04457422
251.85	2.98801682
252.062	2.98941043
252.274	3.02851301
252.486	2.95835935
252.698	2.91171491
252.91	2.89901453
253.122	2.81122377
253.334	2.92177689
253.546	2.83153312
253.758	3.07220208
253.97	3.15342921
254.182	3.27021417
254.394	3.22688884
254.606	3.26666686
254.818	3.14117176
255.03	3.12579844
255.242	3.07143413
255.454	3.0752815
255.666	2.95399076
255.877	2.89753443
256.089	2.89593746
256.301	2.87604849
256.513	2.85846918
256.725	2.89910292
256.937	2.87308745
257.149	2.84522446
257.361	2.83313754
257.572	2.83160419
257.784	2.76271959
257.996	2.77921471
258.208	2.67796653
258.42	2.67210709
258.631	2.67995678
258.843	2.68022587
259.055	2.64218339
259.267	2.68846945
259.479	2.64207411
259.69	2.66292193
259.902	2.66016648
260.114	2.66146864
260.325	2.67855327
260.537	2.63190048
260.749	2.67946542
260.961	2.67631354
261.172	2.63266128
261.384	2.66340194
261.596	2.69178984
261.807	2.72655929
262.019	2.76167162
262.23	2.83067569
262.442	2.77446875
262.654	2.81231454
262.865	2.76396858
263.077	2.70633368
263.288	2.71825421
263.5	2.81435446
263.712	2.80297826
263.923	2.80987199
264.135	2.82639783
264.346	2.8498452
264.558	2.85598119
264.769	2.8714142
264.981	2.88174059
265.192	2.843171
265.404	2.87265432
265.615	2.90153157
265.827	2.88627667
266.038	2.86881813
266.25	2.84860542
266.461	2.88644224
266.673	2.84149318
266.884	2.90489281
267.095	2.88125633
267.307	2.88101302
267.518	2.88097487
267.73	2.89041467
267.941	2.80470101
268.152	2.69147147
268.364	2.72273958
268.575	2.67378929
268.786	2.67033882
268.998	2.68242207
269.209	2.69667508
269.42	2.74743268
269.632	2.69067015
269.843	2.69556365
270.054	2.7028852
270.265	2.70944884
270.477	2.6805576
270.688	2.68237736
270.899	2.64017078
271.11	2.6600205
271.322	2.6622545
271.533	2.66247556
271.744	2.72079581
271.955	2.74846586
272.166	2.70845573
272.378	2.73375519
272.589	2.81332906
272.8	2.80703852
273.011	2.8346974
273.222	2.83886774
273.433	2.82206589
273.644	2.80069799
273.856	2.73475007
274.067	2.78035767
274.278	2.76754701
274.489	2.75052396
274.7	2.78355547
274.911	2.8228869
275.122	2.88493899
275.333	2.90834357
275.544	2.89199091
275.755	2.83798437
275.966	2.85303318
276.177	2.76689755
276.388	2.8412696
276.599	2.87083009
276.81	2.8489516
277.021	2.81135456
277.232	2.823167
277.443	2.82474772
277.654	2.82465934
277.865	2.84821028
278.076	2.83462482
278.287	2.85809595
278.497	2.87383527
278.708	2.82885034
278.919	2.83696501
279.13	2.81818003
279.341	2.7959116
279.552	2.72058454
279.763	2.70028482
279.973	2.70633148
280.184	2.71459157
280.395	2.70389226
280.606	2.75805044
280.817	2.69920337
281.027	2.72657391
281.238	2.72380075
281.449	2.73037111
281.66	2.73181661
281.87	2.71865102
282.081	2.72240486
282.292	2.69965304
282.503	2.70407582
282.713	2.72883363
282.924	2.7484957
283.135	2.78949147
283.345	2.79686924
283.556	2.77858
283.767	2.79421241
283.977	2.80062501
284.188	2.7756371
284.399	2.7600455
284.609	2.7702208
284.82	2.79192516
285.03	2.78012484
285.241	2.80362491
285.451	2.78951717
285.662	2.83148657
285.873	2.86221015
286.083	2.83470491
286.294	2.85861151
286.504	2.84327192
286.715	2.86698786
286.925	2.84540022
287.136	2.83915259
287.346	2.82044848
287.557	2.83412173
287.767	2.82799617
287.978	2.81760801
288.188	2.80236959
288.399	2.83603226
288.609	2.84438759
288.819	2.871368
289.03	2.90735663
289.24	2.94158029
289.451	2.90749337
289.661	2.835952
289.871	2.80652493
290.082	2.78451165
290.292	2.74945377
290.502	2.76034906
290.713	2.74156216
290.923	2.78925806
291.133	2.79017679
291.344	2.82104023
291.554	2.80603375
291.764	2.81465333
291.974	2.77754804
292.185	2.78304679
292.395	2.81567369
292.605	2.84627073
292.815	2.83967717
293.026	2.83387834
293.236	2.83671136
293.446	2.82424201
293.656	2.82088118
293.866	2.83354952
294.077	2.89822088
294.287	2.93291864
294.497	2.94038905
294.707	2.96426062
294.917	2.95815911
295.127	2.98662614
295.337	2.95499797
295.548	2.97440383
295.758	2.98493482
295.968	3.01055093
296.178	3.0187457
296.388	3.02285678
296.598	3.01095513
296.808	3.03705629
297.018	3.04727792
297.228	3.03527291
297.438	3.07732329
297.648	3.07212005
297.858	3.04528339
298.068	3.02268321
298.278	3.06375712
298.488	3.06253209
298.698	3.07236973
298.908	3.09089753
299.118	3.09591443
299.328	3.12014547
299.538	3.08011062
299.748	3.06391194
299.957	3.0865236
300.167	3.05438746
300.377	3.05280118
300.587	3.05199995
300.797	3.09198322
301.007	3.10073243
301.217	3.05282267
301.426	3.03729262
301.636	3.03412125
301.846	3.03669441
302.056	3.03275661
302.266	3.04600458
302.475	3.05406983
302.685	3.0307797
302.895	3.02111589
303.105	2.96788398
303.314	2.92439475
303.524	2.95517246
303.734	2.94317778
303.944	2.95059168
304.153	2.98374046
304.363	2.95831759
304.573	2.98997372
304.782	2.96958484
304.992	2.96649076
305.202	2.96019129
305.411	2.98223136
305.621	3.00387019
305.831	3.02348102
306.04	3.0587455
306.25	3.0530633
306.459	3.06779399
306.669	3.04405216
306.878	3.03718158
307.088	3.02279014
307.298	3.01891104
307.507	3.06133998
307.717	3.07934765
307.926	3.05888559
308.136	3.08666863
308.345	3.09636103
308.555	3.06741861
308.764	3.08075935
308.974	3.09244103
309.183	3.13907696
309.392	3.13546011
309.602	3.08264247
309.811	3.04770793
310.021	3.04545901
310.23	3.0307558
310.44	3.00219029
310.649	3.01890574
310.858	3.00443706
311.068	3.07890502
311.277	3.0663078
311.486	3.09211638
311.696	3.11534765
311.905	3.12161432
312.114	3.10907808
312.324	3.12281938
312.533	3.11884416
312.742	3.12265526
312.952	3.18101212
313.161	3.17560034
313.37	3.18977118
313.579	3.17024855
313.789	3.17848513
313.998	3.2666317
314.207	3.29150101
314.416	3.33202733
314.625	3.33801172
314.835	3.35145216
315.044	3.33298205
315.253	3.33202402
315.462	3.33274336
315.671	3.36533378
315.88	3.38697834
316.09	3.37318645
316.299	3.35820677
316.508	3.39407591
316.717	3.38489473
316.926	3.37650566
317.135	3.40091183
317.344	3.3849434
317.553	3.39121498
317.762	3.37555398
317.971	3.39691857
318.18	3.43329259
318.389	3.44418936
318.598	3.48371107
318.807	3.46124681
319.016	3.44673457
319.225	3.41900423
319.434	3.44001313
319.643	3.49215532
319.852	3.45876528
320.061	3.47004396
320.27	3.42868312
320.479	3.48474443
320.688	3.48193709
320.897	3.50879031
321.105	3.48223917
321.314	3.50466473
321.523	3.50017054
321.732	3.45793096
321.941	3.44760779
322.15	3.43096394
322.359	3.42903323
322.567	3.4099701
322.776	3.3764761
322.985	3.38204653
323.194	3.34732632
323.403	3.36277805
323.611	3.39628697
323.82	3.40317566
324.029	3.36397331
324.237	3.37559375
324.446	3.39766798
324.655	3.40364228
324.864	3.38773541
325.072	3.39378768
325.281	3.36428949
325.49	3.39307903
325.698	3.35017212
325.907	3.31749693
326.116	3.36357232
326.324	3.36316178
326.533	3.35247332
326.741	3.3290974
326.95	3.35098921
327.159	3.32302591
327.367	3.29546987
327.576	3.33605702
327.784	3.33764137
327.993	3.3313765
328.201	3.29130869
328.41	3.27472696
328.618	3.24730559
328.827	3.2307238
329.035	3.26906022
329.244	3.23971382
329.452	3.25371509
329.661	3.22931554
329.869	3.23069512
330.078	3.248659
330.286	3.25914176
330.495	3.261724
330.703	3.26004954
330.911	3.28744198
331.12	3.33767595
331.328	3.36135848
331.537	3.39627632
331.745	3.3811231
331.953	3.38786648
332.162	3.38565299
332.37	3.4128576
332.578	3.45337495
332.787	3.50312673
332.995	3.51839353
333.203	3.51649831
333.411	3.48061251
333.62	3.48668563
333.828	3.48930835
334.036	3.52130369
334.244	3.5484733
334.453	3.56545548
334.661	3.60475275
334.869	3.57500662
335.077	3.61288118
335.285	3.60841091
335.494	3.58799172
335.702	3.55832537
335.91	3.55438777
336.118	3.6139498
336.326	3.63808152
336.534	3.65338561
336.742	3.64789809
336.951	3.67280614
337.159	3.69945075
337.367	3.74912386
337.575	3.75727606
337.783	3.7978474
337.991	3.82112893
338.199	3.83702304
338.407	3.8406762
338.615	3.82151589
338.823	3.83625255
339.031	3.83230527
339.239	3.84231015
339.447	3.83900812
339.655	3.83753028
339.863	3.82903851
340.071	3.83013787
340.279	3.84277659
340.487	3.80228026
340.695	3.78523287
340.903	3.73726087
341.11	3.74889711
341.318	3.74112227
341.526	3.70419841
341.734	3.67533685
341.942	3.68137228
342.15	3.68957762
342.358	3.65989222
342.565	3.66469829
342.773	3.6654145
342.981	3.68189578
343.189	3.68944569
343.397	3.69652583
343.604	3.70047496
343.812	3.68697896
344.02	3.71127843
344.228	3.71292494
344.435	3.73824515
344.643	3.73531245
344.851	3.77893491
345.058	3.77285486
345.266	3.80560403
345.474	3.79663207
345.681	3.77359006
345.889	3.77898907
346.097	3.79172854
346.304	3.76651832
346.512	3.73599537
346.72	3.7534683
346.927	3.75089097
347.135	3.77582518
347.342	3.75801078
347.55	3.77931863
347.758	3.77481071
347.965	3.77340339
348.173	3.78433272
348.38	3.7642158
348.588	3.77628428
348.795	3.74594491
349.003	3.73595519
349.21	3.71395405
349.418	3.73342647
349.625	3.74050311
349.833	3.725859
350.04	3.74776777
350.247	3.76252452
350.455	3.75298493
350.662	3.79174367
350.87	3.83299512
351.077	3.85203128
351.284	3.86273559
351.492	3.85412697
351.699	3.86714917
351.906	3.83523367
352.114	3.85275858
352.321	3.84914928
352.528	3.84206064
352.736	3.87761402
352.943	3.86188143
353.15	3.88119365
353.358	3.9184728
353.565	3.94148937
353.772	3.90928313
353.979	3.93687093
354.187	3.97406579
354.394	3.96541205
354.601	3.9686769
354.808	3.96633785
355.015	3.94972179
355.223	3.93727954
355.43	3.90537578
355.637	3.90144398
355.844	3.88448534
356.051	3.87558705
356.258	3.89090869
356.465	3.8736251
356.673	3.90065126
356.88	3.89894534
357.087	3.90120996
357.294	3.90116497
357.501	3.89597779
357.708	3.88662706
357.915	3.87074242
358.122	3.88092289
358.329	3.87705116
358.536	3.84833596
358.743	3.86447513
358.95	3.84970857
359.157	3.84157992
359.364	3.82551829
359.571	3.82937821
359.778	3.84329579
359.985	3.8466733
360.192	3.86630547
360.399	3.85996623
360.606	3.8467504
360.812	3.8607203
361.019	3.84733872
361.226	3.84597484
361.433	3.84364632
361.64	3.83736405
361.847	3.83701649
362.054	3.86294891
362.26	3.87163208
362.467	3.8836834
362.674	3.88000334
362.881	3.89110698
363.088	3.87162597
363.294	3.88532392
363.501	3.89373228
363.708	3.90882374
363.915	3.89767441
364.121	3.92262798
364.328	3.92068647
364.535	3.92401151
364.741	3.93244688
364.948	3.93335373
365.155	3.9405932
365.361	3.97412805
365.568	3.98962612
365.775	3.96281765
365.981	3.95982642
366.188	3.95071642
366.395	3.92078667
366.601	3.91767157
366.808	3.91647876
367.014	3.90809866
367.221	3.90712255
367.427	3.9240072
367.634	3.92116983
367.84	3.91880233
368.047	3.91802536
368.254	3.93044144
368.46	3.91805743
368.667	3.92790397
368.873	3.89634676
369.079	3.89767017
369.286	3.8909566
369.492	3.8881816
369.699	3.87380345
369.905	3.87055089
370.112	3.88711363
370.318	3.90352465
370.524	3.91462417
370.731	3.9096163
370.937	3.89155655
371.144	3.88797335
371.35	3.89690814
371.556	3.89925218
371.763	3.88872332
371.969	3.89406151
372.175	3.87925944
372.381	3.87876485
372.588	3.86706383
372.794	3.83893514
373	3.81412806
373.206	3.82236037
373.413	3.82194375
373.619	3.83233233
373.825	3.8400956
374.031	3.8332186
374.238	3.81041428
374.444	3.81613254
374.65	3.83499373
374.856	3.84085671
375.062	3.83224206
375.268	3.84116529
375.475	3.84693224
375.681	3.84320489
375.887	3.85523471
376.093	3.8660802
376.299	3.84080416
376.505	3.87858368
376.711	3.88608008
376.917	3.88278566
377.123	3.87817527
377.329	3.88461755
377.535	3.87377599
377.741	3.86854983
377.947	3.86321082
378.153	3.85545345
378.359	3.84028305
378.565	3.84669621
378.771	3.8461239
378.977	3.82897847
379.183	3.81261176
379.389	3.81581262
379.595	3.8102735
379.801	3.80099914
380.007	3.7931814
380.213	3.77104844
380.418	3.75292851
380.624	3.77147396
380.83	3.74779461
381.036	3.74942976
381.242	3.75101325
381.448	3.78065361
381.653	3.79454262
381.859	3.81001817
382.065	3.80554654
382.271	3.80912622
382.476	3.79779411
382.682	3.793406
382.888	3.80041687
383.094	3.80351617
383.299	3.81797657
383.505	3.82191596
383.711	3.82830356
383.916	3.84216203
384.122	3.82568894
384.328	3.84303504
384.533	3.87115569
384.739	3.86773313
384.945	3.86417444
385.15	3.88334645
385.356	3.87490133
385.562	3.86747447
385.767	3.86893609
385.973	3.86353014
386.178	3.86538801
386.384	3.87091787
386.589	3.86206286
386.795	3.87503438
387	3.88629759
387.206	3.88181595
387.411	3.88133991
387.617	3.87477109
387.822	3.88225801
388.028	3.88099717
388.233	3.88213971
388.439	3.9029782
388.644	3.89200363
388.85	3.85685263
389.055	3.84689081
389.26	3.83497155
389.466	3.81285336
389.671	3.82159939
389.877	3.83305773
390.082	3.80811489
390.287	3.79061289
390.493	3.81040747
390.698	3.79673129
390.903	3.81317331
391.109	3.81888752
391.314	3.81934576
391.519	3.83029027
391.724	3.80879471
391.93	3.81429827
392.135	3.80497006
392.34	3.8043374
392.545	3.79165756
392.751	3.79258396
392.956	3.79342126
393.161	3.8256061
393.366	3.86451201
393.571	3.89188898
393.776	3.91692269
393.982	3.91323356
394.187	3.92047601
394.392	3.95090989
394.597	3.96984897
394.802	3.95731143
395.007	3.96919101
395.212	3.95815547
395.417	3.94944551
395.622	3.94808375
395.827	3.96447553
396.032	3.98098414
396.237	3.96047067
396.442	3.97105811
396.647	3.97852992
396.852	3.9786632
397.057	3.97586315
397.262	3.98271878
397.467	3.98573595
397.672	3.95473704
397.877	3.94383891
398.082	3.92017439
398.287	3.92040523
398.492	3.92477926
398.697	3.92253277
398.902	3.90899152
399.107	3.89991382
399.311	3.90852855
399.516	3.90502412
399.721	3.91428787
399.926	3.92365083
400.131	3.91621538
400.336	3.93041966
400.54	3.95555437
400.745	3.94941643
400.95	3.94667737
401.155	3.96252299
401.359	3.96817688
401.564	3.96022253
401.769	3.93535881
401.974	3.96978624
402.178	3.97700563
402.383	3.98868486
402.588	3.99809192
402.792	3.98790937
402.997	3.97103259
403.202	3.98707269
403.406	3.98903967
403.611	3.9939423
403.815	4.00271214
404.02	4.00352127
404.225	4.00963462
404.429	4.00711029
404.634	4.0113849
404.838	4.00140254
405.043	4.0158109
405.247	4.03948649
405.452	4.03489782
405.656	4.04419335
405.861	4.05908311
406.065	4.06960299
406.27	4.0567747
406.474	4.05521497
406.679	4.0568502
406.883	4.06772258
407.088	4.08153525
407.292	4.09126654
407.497	4.10181358
407.701	4.10230097
407.905	4.10841304
408.11	4.12040558
408.314	4.11786617
408.518	4.12071978
408.723	4.12628379
408.927	4.13696257
409.131	4.14751979
409.336	4.14905023
409.54	4.13539271
409.744	4.1342714
409.949	4.13368866
410.153	4.12927344
410.357	4.14004811
410.561	4.14052674
410.766	4.14151585
410.97	4.17541618
411.174	4.17381467
411.378	4.17428185
411.582	4.20174182
411.787	4.19303016
411.991	4.20007684
412.195	4.20117026
412.399	4.21342407
412.603	4.21868497
412.807	4.21363104
413.011	4.19485276
413.215	4.18816523
413.419	4.16681315
413.624	4.15762367
413.828	4.14804678
414.032	4.14379452
414.236	4.14179735
414.44	4.15893928
414.644	4.15201573
414.848	4.15076345
415.052	4.16871335
415.256	4.14652291
415.46	4.14774497
415.664	4.15684886
415.868	4.14308515
416.072	4.13978515
416.275	4.14007252
416.479	4.1382129
416.683	4.1290676
416.887	4.12067999
417.091	4.12736189
417.295	4.14010951
417.499	4.15418535
417.703	4.17594288
417.906	4.19801403
418.11	4.20817858
418.314	4.21984011
418.518	4.23285016
418.722	4.22599387
418.925	4.23506942
419.129	4.24951314
419.333	4.26230569
419.537	4.26776578
419.74	4.27635426
419.944	4.28040827
420.148	4.28455961
420.352	4.29675901
420.555	4.31275092
420.759	4.32299222
420.963	4.33139932
421.166	4.34549779
421.37	4.35086915
421.573	4.35746331
421.777	4.3606644
421.981	4.36104361
422.184	4.36089614
422.388	4.3709732
422.591	4.37618626
422.795	4.37856589
422.999	4.39137702
423.202	4.391871
423.406	4.38709287
423.609	4.38550649
423.813	4.39245957
424.016	4.3873334
424.22	4.38543766
424.423	4.38829409
424.627	4.38455338
424.83	4.3856042
425.033	4.39285601
425.237	4.39690484
425.44	4.40429679
425.644	4.41039692
425.847	4.42119212
426.05	4.42307207
426.254	4.43470396
426.457	4.43740232
426.66	4.43921523
426.864	4.43575414
427.067	4.44026123
427.27	4.42950823
427.474	4.43625387
427.677	4.45612668
427.88	4.44457753
428.084	4.44150589
428.287	4.44471562
428.49	4.44840241
428.693	4.4497472
428.896	4.47198629
429.1	4.47260542
429.303	4.47172732
429.506	4.46750031
429.709	4.46234396
429.912	4.47067325
430.116	4.48046161
430.319	4.48225516
430.522	4.47832774
430.725	4.49202277
430.928	4.50346715
431.131	4.51697337
431.334	4.52513099
431.537	4.54563649
431.74	4.55543685
431.943	4.5474195
432.146	4.56120402
432.349	4.57553355
432.552	4.58275134
432.755	4.6029982
432.958	4.606667
433.161	4.60489727
433.364	4.61690066
433.567	4.62671616
433.77	4.64481468
433.973	4.65053111
434.176	4.64801904
434.379	4.63773835
434.582	4.638852
434.785	4.65190277
434.988	4.65450251
435.19	4.63970364
435.393	4.63700215
435.596	4.63582561
435.799	4.63881545
436.002	4.64711348
436.205	4.64922084
436.407	4.66357778
436.61	4.6639291
436.813	4.67243992
437.016	4.66973252
437.218	4.68491946
437.421	4.68028502
437.624	4.68255146
437.827	4.67846497
438.029	4.68249595
438.232	4.69212623
438.435	4.70808165
438.637	4.72531002
438.84	4.72189186
439.043	4.72373321
439.245	4.72914327
439.448	4.73603159
439.65	4.75618863
439.853	4.75985102
440.056	4.77323225
440.258	4.76544708
440.461	4.7777773
440.663	4.78849226
440.866	4.79253348
441.068	4.79873122
441.271	4.79697698
441.473	4.79377085
441.676	4.80207767
441.878	4.800552
442.081	4.82110909
442.283	4.82063177
442.486	4.82410119
442.688	4.82167272
442.89	4.82389656
443.093	4.84700928
443.295	4.85324344
443.498	4.86343697
443.7	4.87500014
443.902	4.86914054
444.105	4.87641835
444.307	4.86868654
444.509	4.88959151
444.712	4.89753874
444.914	4.88563764
445.116	4.89290133
445.319	4.90031601
445.521	4.91606234
445.723	4.93289027
445.925	4.9499662
446.128	4.96420132
446.33	4.96576728
446.532	4.97626079
446.734	4.98448479
446.936	4.99050633
447.139	5.00079432
447.341	4.99617686
447.543	5.00552043
447.745	5.00008422
447.947	5.01047242
448.149	5.02292306
448.351	5.0363007
448.553	5.04310264
448.755	5.04777261
448.958	5.04924907
449.16	5.06223441
449.362	5.06299034
449.564	5.06683129
449.766	5.06924088
449.968	5.0680765
450.17	5.07285476
450.372	5.07986237
450.574	5.08099066
450.776	5.08851445
450.978	5.09362281
451.179	5.11017907
451.381	5.10462989
451.583	5.11760877
451.785	5.12126024
451.987	5.1279942
452.189	5.12677315
452.391	5.13130901
452.593	5.13573586
452.795	5.14626457
452.996	5.14507628
453.198	5.1543856
453.4	5.15730439
453.602	5.1737494
453.804	5.18314262
454.005	5.18826439
454.207	5.19323841
454.409	5.19462086
454.611	5.20360682
454.812	5.21678539
455.014	5.2198156
455.216	5.2267353
455.417	5.22728997
455.619	5.24308635
455.821	5.24365026
456.022	5.23888299
456.224	5.23982774
456.426	5.25197211
456.627	5.26079818
456.829	5.25180493
457.031	5.25912852
457.232	5.2728564
457.434	5.27981012
457.635	5.29462692
457.837	5.29733537
458.038	5.30713942
458.24	5.30934222
458.441	5.31942154
458.643	5.33042377
458.844	5.32407304
459.046	5.32225573
459.247	5.32655005
459.449	5.32638549
459.65	5.33365533
459.852	5.34008146
460.053	5.34550147
460.254	5.3668286
460.456	5.3775984
460.657	5.38659692
460.859	5.38969856
461.06	5.39945034
461.261	5.40726215
461.463	5.40339464
461.664	5.40462567
461.865	5.40734293
462.066	5.40975197
462.268	5.40870766
462.469	5.41581476
462.67	5.41724195
462.872	5.41922963
463.073	5.43146121
463.274	5.44924192
463.475	5.45540506
463.676	5.46782359
463.878	5.47360832
464.079	5.46529524
464.28	5.47007954
464.481	5.46979201
464.682	5.48287439
464.883	5.47359242
465.085	5.48124653
465.286	5.49395176
465.487	5.50320413
465.688	5.50999388
465.889	5.51518277
466.09	5.5205929
466.291	5.53390593
466.492	5.55097796
466.693	5.55394123
466.894	5.56980679
467.095	5.57569491
467.296	5.57779401
467.497	5.57232925
467.698	5.57378577
467.899	5.58883702
468.1	5.58917745
468.301	5.59965549
468.502	5.60574587
468.703	5.61794391
468.903	5.61794333
469.104	5.63718623
469.305	5.64612206
469.506	5.66024691
469.707	5.66386897
469.908	5.67524006
470.109	5.69096351
470.309	5.69351271
470.51	5.70359874
470.711	5.69247083
470.912	5.70693486
471.112	5.70952794
471.313	5.70174653
471.514	5.73139214
471.715	5.74487442
471.915	5.76379821
472.116	5.76997953
472.317	5.78042051
472.517	5.78314711
472.718	5.79617035
472.919	5.79610201
473.119	5.807121
473.32	5.81620367
473.521	5.83591988
473.721	5.84108735
473.922	5.84853144
474.122	5.85584463
474.323	5.86274403
474.523	5.88662028
474.724	5.88393335
474.925	5.90312087
475.125	5.90548451
475.326	5.91534214
475.526	5.9395636
475.727	5.92920015
475.927	5.93970937
476.127	5.94746084
476.328	5.95325543
476.528	5.96832558
476.729	5.98717563
476.929	5.99745155
477.13	6.00106723
477.33	6.00451842
477.53	6.01765128
477.731	6.01500121
477.931	6.0224644
478.131	6.03361623
478.332	6.05262429
478.532	6.06128308
478.732	6.06698688
478.933	6.0792796
479.133	6.08311416
479.333	6.10263188
479.533	6.11595936
479.734	6.12996252
479.934	6.14598951
480.134	6.15847399
480.334	6.17320181
480.534	6.18373103
480.735	6.19526539
480.935	6.2124546
481.135	6.22118957
481.335	6.2350915
481.535	6.25329718
481.735	6.26368306
481.935	6.27659474
482.136	6.28987529
482.336	6.30604176
482.536	6.31793658
482.736	6.33270725
482.936	6.34397607
483.136	6.36443339
483.336	6.38145572
483.536	6.39716503
483.736	6.40434258
483.936	6.41755248
484.136	6.43815789
484.336	6.45303198
484.536	6.46868748
484.736	6.48369826
484.936	6.49433246
485.135	6.50318187
485.335	6.51531482
485.535	6.53317101
485.735	6.5438943
485.935	6.55145491
486.135	6.56552277
486.335	6.57272109
486.534	6.58364796
486.734	6.59229877
486.934	6.60381044
487.134	6.61094224
487.334	6.62046731
487.533	6.63119134
487.733	6.6389053
487.933	6.65506161
488.133	6.66017584
488.332	6.66369203
488.532	6.6699844
488.732	6.67366933
488.931	6.67977023
489.131	6.68835676
489.331	6.69874743
489.53	6.7098947
489.73	6.71623222
489.93	6.72620939
490.129	6.7411589
490.329	6.74587848
490.528	6.75776211
490.728	6.76203583
490.928	6.76970173
491.127	6.77820513
491.327	6.7856715
491.526	6.7902062
491.726	6.79663169
491.925	6.80320904
492.125	6.81343969
492.324	6.83191909
492.524	6.84140797
492.723	6.8523757
492.922	6.85962727
493.122	6.86710147
493.321	6.87866473
493.521	6.88357018
493.72	6.89330641
493.919	6.90423021
494.119	6.91024925
494.318	6.91242436
494.517	6.92533712
494.717	6.93338718
494.916	6.94515461
495.115	6.95482313
495.315	6.95961976
495.514	6.97004376
495.713	6.98403403
495.912	6.99794431
496.112	7.01091463
496.311	7.01475171
496.51	7.01941832
496.709	7.02832819
496.908	7.04131377
497.108	7.05825323
497.307	7.07858982
497.506	7.08901623
497.705	7.10819044
497.904	7.11592333
498.103	7.11771517
498.302	7.13115723
498.501	7.15918602
498.701	7.16873226
498.9	7.18189545
499.099	7.18954421
499.298	7.20219239
499.497	7.21763519
499.696	7.24097022
499.895	7.2422701
500.094	7.25605572
500.293	7.27490423
500.492	7.28905871
500.691	7.30179584
500.89	7.31858243
501.088	7.32469927
501.287	7.34138732
501.486	7.35181749
501.685	7.36715478
501.884	7.38990629
502.083	7.40229971
502.282	7.42263464
502.481	7.43429469
502.679	7.44503119
502.878	7.46515392
503.077	7.48873518
503.276	7.51803636
503.475	7.54207126
503.673	7.55898104
503.872	7.56474736
504.071	7.59933403
504.27	7.62267566
504.468	7.63293908
504.667	7.66279897
504.866	7.68106861
505.064	7.69715587
505.263	7.72092748
505.462	7.74367242
505.66	7.75700186
505.859	7.78369959
506.058	7.7870642
506.256	7.81584808
506.455	7.83333996
506.653	7.8542881
506.852	7.86636387
507.05	7.88132999
507.249	7.89898458
507.448	7.91367739
507.646	7.92800194
507.845	7.95361303
508.043	7.98620357
508.242	7.99752557
508.44	8.01749638
508.638	8.04235394
508.837	8.05074002
509.035	8.07469631
509.234	8.09426919
509.432	8.11133055
509.631	8.13243465
509.829	8.15824122
510.027	8.16822909
510.226	8.19901198
510.424	8.22058948
510.622	8.24546988
510.821	8.27485753
511.019	8.2911063
511.217	8.31800909
511.415	8.3340371
511.614	8.36172289
511.812	8.38325903
512.01	8.39998296
512.208	8.4166795
512.407	8.44191767
512.605	8.46591202
512.803	8.49016457
513.001	8.52577765
513.199	8.54229154
513.398	8.57264515
513.596	8.60481473
513.794	8.63718745
513.992	8.6649047
514.19	8.70069062
514.388	8.73226475
514.586	8.76370585
514.784	8.79531521
514.982	8.8257719
515.18	8.86154758
515.378	8.88858412
515.576	8.92084222
515.774	8.95139266
515.972	8.98998018
516.17	9.02381268
516.368	9.05867071
516.566	9.08996116
516.764	9.12290319
516.962	9.14633105
517.16	9.1727282
517.358	9.21444319
517.556	9.24489991
517.754	9.27274383
517.952	9.29667637
518.149	9.33291818
518.347	9.3579884
518.545	9.38844831
518.743	9.41713569
518.941	9.44437914
519.138	9.47358483
519.336	9.51453819
519.534	9.54911651
519.732	9.58153942
519.929	9.60794956
520.127	9.64275217
520.325	9.67505524
520.523	9.71170326
520.72	9.74920069
520.918	9.77821787
521.116	9.82230609
521.313	9.85954408
521.511	9.88758838
521.709	9.93210053
521.906	9.97683083
522.104	10.01555129
522.301	10.05093749
522.499	10.09465939
522.696	10.13380501
522.894	10.18002641
523.092	10.2299465
523.289	10.28314579
523.487	10.32353384
523.684	10.37271637
523.882	10.4240075
524.079	10.48740644
524.276	10.53503521
524.474	10.59407051
524.671	10.64416904
524.869	10.69281287
525.066	10.75013781
525.264	10.80596907
525.461	10.85392654
525.658	10.91054072
525.856	10.94979983
526.053	10.99257747
526.25	11.03755138
526.448	11.08466602
526.645	11.12798972
526.842	11.16820684
527.039	11.20996688
527.237	11.25412185
527.434	11.28471345
527.631	11.32427952
527.828	11.36926215
528.026	11.41056594
528.223	11.43989912
528.42	11.48376672
528.617	11.51815683
528.814	11.55572003
529.012	11.59269422
529.209	11.63036062
529.406	11.66746996
529.603	11.70920837
529.8	11.74507412
529.997	11.78656351
530.194	11.82790687
530.391	11.86821105
530.588	11.90217632
530.785	11.94002313
530.982	11.9822638
531.179	12.01837821
531.376	12.05135506
531.573	12.09141783
531.77	12.13026951
531.967	12.16164695
532.164	12.20193919
532.361	12.24248692
532.558	12.28102494
532.755	12.3248341
532.952	12.37255905
533.149	12.41823862
533.346	12.46056325
533.543	12.50059263
533.739	12.54103144
533.936	12.58577556
534.133	12.62769193
534.33	12.66880136
534.527	12.71134575
534.723	12.75816676
534.92	12.80597415
535.117	12.84743648
535.314	12.89155107
535.51	12.94743335
535.707	12.99936448
535.904	13.05538766
536.1	13.10883689
536.297	13.16313033
536.494	13.22967052
536.69	13.28321529
536.887	13.34437675
537.084	13.40565518
537.28	13.46519242
537.477	13.52418886
537.674	13.59063611
537.87	13.65686178
538.067	13.71647934
538.263	13.78527322
538.46	13.8546488
538.656	13.91851023
538.853	13.98829505
539.049	14.05692447
539.246	14.12795021
539.442	14.19434345
539.639	14.2528037
539.835	14.32392599
540.032	14.38662289
540.228	14.44819849
540.424	14.50525062
540.621	14.56506161
540.817	14.62222006
541.014	14.68467377
541.21	14.73664344
541.406	14.80227018
541.603	14.86906495
541.799	14.92942491
541.995	14.98702457
542.191	15.05318884
542.388	15.11038261
542.584	15.16595056
542.78	15.22047033
542.976	15.28034862
543.173	15.32813176
543.369	15.38122921
543.565	15.44091729
543.761	15.48658448
543.957	15.53286236
544.154	15.5877269
544.35	15.64485858
544.546	15.69666427
544.742	15.74330438
544.938	15.79334011
545.134	15.83394003
545.33	15.88509309
545.526	15.92782774
545.722	15.96773611
545.919	16.00430209
546.115	16.0530692
546.311	16.0943438
546.507	16.13490971
546.703	16.18102059
546.899	16.23849975
547.095	16.2729643
547.29	16.3228796
547.486	16.37641473
547.682	16.41957846
547.878	16.47135853
548.074	16.52143893
548.27	16.55947062
548.466	16.60448391
548.662	16.65314844
548.858	16.69976227
549.053	16.75540755
549.249	16.80387732
549.445	16.8544034
549.641	16.9163624
549.837	16.96426737
550.032	17.02329823
550.228	17.07066183
550.424	17.11769846
550.62	17.16912418
550.815	17.21373291
551.011	17.23646855
551.207	17.29233731
551.402	17.34205139
551.598	17.38023209
551.794	17.42798988
551.989	17.48559714
552.185	17.53128799
552.381	17.58879098
552.576	17.64016311
552.772	17.67767041
552.967	17.72427308
553.163	17.76562156
553.359	17.80839122
553.554	17.84672462
553.75	17.87499367
553.945	17.92029978
554.141	17.96243273
554.336	18.00896741
554.532	18.06050737
554.727	18.10679364
554.922	18.14400806
555.118	18.19858687
555.313	18.23158347
555.509	18.26660876
555.704	18.31844534
555.899	18.35508538
556.095	18.39236118
556.29	18.42843047
556.486	18.46708479
556.681	18.51632947
556.876	18.56799866
557.071	18.5959014
557.267	18.64618872
557.462	18.68930238
557.657	18.74295761
557.853	18.78709648
558.048	18.83260764
558.243	18.87454515
558.438	18.9139655
558.633	18.94295849
558.829	18.99226408
559.024	19.0437496
559.219	19.10342374
559.414	19.16702942
559.609	19.22531897
559.804	19.26449488
559.999	19.31482231
560.194	19.37798151
560.39	19.43887776
560.585	19.48883643
560.78	19.52648772
560.975	19.58428905
561.17	19.64626513
561.365	19.70297415
561.56	19.76137304
561.755	19.81837288
561.95	19.86494992
562.145	19.91501915
562.34	19.97632745
562.535	20.03925591
562.729	20.09914102
562.924	20.14965536
563.119	20.20596042
563.314	20.25490332
563.509	20.29854631
563.704	20.34960053
563.899	20.40395603
564.093	20.46839657
564.288	20.51686092
564.483	20.56412775
564.678	20.60883124
564.873	20.65766031
565.067	20.68942031
565.262	20.74091182
565.457	20.79365029
565.652	20.84738605
565.846	20.88023393
566.041	20.93024375
566.236	20.98864453
566.43	21.03098955
566.625	21.06312362
566.82	21.12285374
567.014	21.1716011
567.209	21.22226917
567.404	21.258351
567.598	21.32187176
567.793	21.37637006
567.987	21.42651726
568.182	21.4693124
568.376	21.50854319
568.571	21.55462102
568.765	21.6078566
568.96	21.66824764
569.154	21.72505299
569.349	21.7734563
569.543	21.81079706
569.738	21.84911019
569.932	21.89728126
570.127	21.94835069
570.321	21.99187693
570.515	22.03529332
570.71	22.09232906
570.904	22.13045078
571.098	22.18638093
571.293	22.21904669
571.487	22.27767475
571.681	22.32769078
571.876	22.3676697
572.07	22.4090054
572.264	22.44364988
572.458	22.49044334
572.653	22.5388597
572.847	22.58424391
573.041	22.63402331
573.235	22.68885885
573.43	22.71165774
573.624	22.76023473
573.818	22.818497
574.012	22.87613494
574.206	22.93239911
574.4	22.98065184
574.594	23.03553728
574.788	23.08413141
574.983	23.14248861
575.177	23.19000064
575.371	23.25547231
575.565	23.29046613
575.759	23.30563675
575.953	23.36688671
576.147	23.40999773
576.341	23.45479
576.535	23.49838893
576.729	23.53584083
576.923	23.59386763
577.117	23.63683302
577.31	23.68347218
577.504	23.75933735
577.698	23.8112176
577.892	23.8464431
578.086	23.87837789
578.28	23.9208686
578.474	23.97382332
578.668	24.02032906
578.861	24.06391282
579.055	24.10417105
579.249	24.14746679
579.443	24.19439478
579.636	24.26805377
579.83	24.34745468
580.024	24.37940032
580.218	24.44508482
580.411	24.50878665
580.605	24.56023079
580.799	24.61832589
580.992	24.65706415
581.186	24.71183783
581.38	24.76351565
581.573	24.83591965
581.767	24.87948346
581.961	24.94131276
582.154	25.00538382
582.348	25.06085387
582.541	25.10331762
582.735	25.16905688
582.928	25.22189713
583.122	25.28125335
583.315	25.32821979
583.509	25.36430596
583.702	25.40718446
583.896	25.44795219
584.089	25.5095566
584.283	25.53679564
584.476	25.58952828
584.67	25.67163831
584.863	25.73034343
585.056	25.77758949
585.25	25.81910155
585.443	25.87611986
585.636	25.91344731
585.83	25.95604899
586.023	25.99573076
586.216	26.06013118
586.41	26.09833476
586.603	26.13088975
586.796	26.14547672
586.989	26.18435217
587.183	26.22055135
587.376	26.26142158
587.569	26.30608151
587.762	26.3429214
587.955	26.38397719
588.149	26.43239961
588.342	26.48189319
588.535	26.51924123
588.728	26.53066719
588.921	26.55518629
589.114	26.58803305
589.307	26.60338803
589.5	26.63012656
589.693	26.65087824
589.886	26.6952285
590.08	26.74994987
590.273	26.77098043
590.466	26.83155485
590.659	26.89019215
590.852	26.93278177
591.044	26.9704795
591.237	26.99683004
591.43	27.02630595
591.623	27.06805746
591.816	27.0944054
592.009	27.13178151
592.202	27.12751271
592.395	27.16571079
592.588	27.19294045
592.781	27.23695817
592.973	27.26484434
593.166	27.30718657
593.359	27.37957984
593.552	27.41175808
593.745	27.44573423
593.937	27.4932779
594.13	27.51338683
594.323	27.544206
594.515	27.56217883
594.708	27.57961528
594.901	27.61124945
595.094	27.64923208
595.286	27.66354559
595.479	27.7020609
595.672	27.72868996
595.864	27.75897929
596.057	27.78464032
596.249	27.85600286
596.442	27.89375149
596.635	27.94059274
596.827	27.9731554
597.02	28.03556501
597.212	28.07173113
597.405	28.09457639
597.597	28.14731306
597.79	28.19448819
597.982	28.22994909
598.175	28.2610771
598.367	28.27560016
598.559	28.3073313
598.752	28.35646134
598.944	28.41255633
599.137	28.45217588
599.329	28.49918303
599.521	28.52506757
599.714	28.56971438
599.906	28.6150661
600.098	28.64928977
600.291	28.65519057
600.483	28.69384528
600.675	28.71278476
600.868	28.74448068
601.06	28.75829522
601.252	28.78938264
601.444	28.82207027
601.637	28.84194241
601.829	28.85543071
602.021	28.86955246
602.213	28.89245474
602.405	28.94240583
602.597	28.9660824
602.789	28.99776328
602.982	29.00626617
603.174	29.03035285
603.366	29.07538334
603.558	29.13070396
603.75	29.15056262
603.942	29.17460381
604.134	29.21229377
604.326	29.25718364
604.518	29.28366154
604.71	29.32797771
604.902	29.34645398
605.094	29.37217026
605.286	29.40298038
605.478	29.43806317
605.67	29.47201563
605.862	29.51638897
606.054	29.55450911
606.246	29.60544919
606.437	29.66059937
606.629	29.70327912
606.821	29.75350841
607.013	29.82213651
607.205	29.88518653
607.397	29.93262805
607.588	29.97160235
607.78	30.0538945
607.972	30.13764876
608.164	30.21684439
608.355	30.27853294
608.547	30.33692661
608.739	30.41045706
608.93	30.49808008
609.122	30.58372533
609.314	30.66819754
609.505	30.73197261
609.697	30.81432434
609.889	30.88894717
610.08	30.97052097
610.272	31.05383288
610.463	31.11719934
610.655	31.1836933
610.847	31.25896918
611.038	31.33511691
611.23	31.39217076
611.421	31.46240549
611.613	31.5348023
611.804	31.59279736
611.996	31.64071075
612.187	31.66924781
612.379	31.72232681
612.57	31.77161581
612.761	31.80051398
612.953	31.82386323
613.144	31.86236028
613.336	31.88472457
613.527	31.92271028
613.718	31.96586213
613.91	32.00421202
614.101	32.0240063
614.292	32.02306394
614.483	32.05356593
614.675	32.07792526
614.866	32.06756247
615.057	32.05805586
615.248	32.07039833
615.44	32.06696422
615.631	32.06355347
615.822	32.04241269
616.013	32.03730879
616.204	32.03382059
616.396	32.01659536
616.587	32.0044741
616.778	31.99003254
616.969	31.97612147
617.16	31.95559714
617.351	31.93597194
617.542	31.91151554
617.733	31.85778172
617.924	31.82669651
618.115	31.81499766
618.306	31.78882045
618.497	31.75398295
618.688	31.7437105
618.879	31.72141141
619.07	31.69688698
619.261	31.66515058
619.452	31.65622994
619.643	31.63465417
619.834	31.62810462
620.025	31.60876097
620.216	31.60172114
620.407	31.62437007
620.597	31.62710541
620.788	31.61623852
620.979	31.63485607
621.17	31.63973986
621.361	31.6535139
621.551	31.67255061
621.742	31.68942303
621.933	31.69196138
622.124	31.70376674
622.314	31.73159686
622.505	31.75918013
622.696	31.77377859
622.886	31.79742787
623.077	31.82703481
623.268	31.85431921
623.458	31.87274244
623.649	31.88746333
623.84	31.89649764
624.03	31.90429522
624.221	31.92536985
624.411	31.92763371
624.602	31.93332029
624.792	31.97025305
624.983	31.97252449
625.173	31.97718556
625.364	32.00354824
625.554	32.0073553
625.745	32.02034433
625.935	32.04096293
626.126	32.05840474
626.316	32.06047699
626.507	32.07069411
626.697	32.08254748
626.887	32.10561785
627.078	32.11017009
627.268	32.12674122
627.458	32.13458194
627.649	32.1351888
627.839	32.15630538
628.029	32.18780999
628.22	32.21920517
628.41	32.22451015
628.6	32.25612134
628.79	32.26172786
628.981	32.28621031
629.171	32.31490271
629.361	32.29525687
629.551	32.33027486
629.741	32.34146619
629.932	32.34711651
630.122	32.3500704
630.312	32.38829764
630.502	32.40972546
630.692	32.41957123
630.882	32.43804815
631.072	32.45547419
631.262	32.46273929
631.452	32.48522359
631.642	32.5062323
631.832	32.50982019
632.022	32.51315354
632.212	32.49754981
632.402	32.50698601
632.592	32.51693947
632.782	32.51639593
632.972	32.52725239
633.162	32.51971041
633.352	32.5520257
633.542	32.53585646
633.732	32.53145455
633.922	32.52891542
634.111	32.52706816
634.301	32.53253867
634.491	32.51716244
634.681	32.54608913
634.871	32.52736674
635.06	32.52522551
635.25	32.54396343
635.44	32.53687869
635.63	32.5615854
635.819	32.56454966
636.009	32.56043945
636.199	32.57091463
636.388	32.58710056
636.578	32.59096086
636.768	32.60655067
636.957	32.60632095
637.147	32.61734553
637.337	32.62572583
637.526	32.64559541
637.716	32.66275358
637.905	32.67495994
638.095	32.68140172
638.284	32.68082526
638.474	32.69035313
638.663	32.67260517
638.853	32.67989465
639.042	32.70937576
639.232	32.68773808
639.421	32.69303447
639.611	32.67381641
639.8	32.68910092
639.99	32.68855312
640.179	32.66782641
640.368	32.66836723
640.558	32.67656914
640.747	32.68009963
640.936	32.67157841
641.126	32.66538324
641.315	32.65462015
641.504	32.66307075
641.694	32.67576033
641.883	32.68945836
642.072	32.71846517
642.261	32.72248009
642.451	32.73458367
642.64	32.72493327
642.829	32.72971651
643.018	32.69063934
643.207	32.67857994
643.397	32.70132144
643.586	32.70148064
643.775	32.70563715
643.964	32.71953312
644.153	32.75713144
644.342	32.74895667
644.531	32.73212925
644.72	32.71148745
644.909	32.73535608
645.098	32.74956581
645.287	32.76605528
645.476	32.74992391
645.665	32.7175932
645.854	32.72205265
646.043	32.72119709
646.232	32.72513922
646.421	32.69717159
646.61	32.70552818
646.799	32.72575816
646.988	32.7381009
647.177	32.76394041
647.365	32.74076922
647.554	32.76219919
647.743	32.73569628
647.932	32.73689399
648.121	32.72321422
648.309	32.7386886
648.498	32.75475731
648.687	32.78162123
648.876	32.76742663
649.064	32.76269424
649.253	32.74873319
649.442	32.76797048
649.63	32.79395218
649.819	32.79583199
650.008	32.79331914
650.196	32.76673132
650.385	32.80032549
650.574	32.82507559
650.762	32.83901814
650.951	32.83480328
651.139	32.85534928
651.328	32.86026087
651.516	32.86777791
651.705	32.88157393
651.893	32.88922321
652.082	32.89997356
652.27	32.87830126
652.459	32.88948496
652.647	32.87445743
652.836	32.88210626
653.024	32.88690364
653.213	32.89317133
653.401	32.88373019
653.589	32.86784028
653.778	32.86783319
653.966	32.87980095
654.154	32.88997075
654.343	32.89055522
654.531	32.8797046
654.719	32.83266149
654.908	32.86371308
655.096	32.85330554
655.284	32.86640622
655.472	32.87134718
655.661	32.87704009
655.849	32.89085685
656.037	32.90243536
656.225	32.90823722
656.413	32.8990619
656.601	32.90642512
656.79	32.90808028
656.978	32.90137879
657.166	32.88894922
657.354	32.88188336
657.542	32.91088756
657.73	32.91400895
657.918	32.90703067
658.106	32.92504205
658.294	32.93392137
658.482	32.93175234
658.67	32.9640851
658.858	32.95848329
659.046	32.95705638
659.234	32.96817661
659.422	32.95447936
659.61	32.96864353
659.798	32.94002973
659.986	32.91558827
660.173	32.93473928
660.361	32.95581642
660.549	32.9678034
660.737	32.97950842
660.925	33.01055589
661.113	33.02499902
661.3	33.04692348
661.488	33.07345153
661.676	33.08671682
661.864	33.11144752
662.051	33.09296834
662.239	33.08662509
662.427	33.10676454
662.614	33.11417629
662.802	33.11352067
662.99	33.11869502
663.177	33.11547945
663.365	33.1006138
663.553	33.11156869
663.74	33.16086883
663.928	33.18623147
664.115	33.20036702
664.303	33.20991316
664.49	33.23214441
664.678	33.2427678
664.866	33.23611506
665.053	33.26690161
665.24	33.25444379
665.428	33.25296066
665.615	33.27235878
665.803	33.24251965
665.99	33.29492383
666.178	33.2813191
666.365	33.30441993
666.552	33.3041077
666.74	33.30943169
666.927	33.32683735
667.114	33.32232517
667.302	33.34829623
667.489	33.33763028
667.676	33.30664563
667.864	33.30970797
668.051	33.32261319
668.238	33.29862465
668.425	33.29753332
668.613	33.30428243
668.8	33.30230409
668.987	33.29071732
669.174	33.32181402
669.361	33.32831699
669.548	33.32566221
669.736	33.35113057
669.923	33.34338427
670.11	33.37629035
670.297	33.35587292
670.484	33.38169793
670.671	33.4176665
670.858	33.40756637
671.045	33.44391615
671.232	33.46528717
671.419	33.51648256
671.606	33.5525574
671.793	33.55407328
671.98	33.5530349
672.167	33.5854958
672.354	33.61129209
672.541	33.62764844
672.728	33.65410281
672.915	33.65709744
673.101	33.6258343
673.288	33.64969219
673.475	33.66510825
673.662	33.70807654
673.849	33.7418885
674.035	33.76744461
674.222	33.76357397
674.409	33.77002516
674.596	33.74375521
674.783	33.79087917
674.969	33.80600639
675.156	33.83218279
675.343	33.81196934
675.529	33.8211944
675.716	33.86136126
675.903	33.90067867
676.089	33.91627237
676.276	33.95706405
676.462	33.97722591
676.649	33.99845456
676.836	34.04608288
677.022	34.11013606
677.209	34.12932982
677.395	34.16939192
677.582	34.1752596
677.768	34.17317805
677.955	34.16733559
678.141	34.23737385
678.328	34.28006496
678.514	34.33317435
678.701	34.35061386
678.887	34.37386651
679.073	34.40592974
679.26	34.45070262
679.446	34.48127165
679.632	34.49295457
679.819	34.51377569
680.005	34.54186573
680.191	34.54438069
680.378	34.56013851
680.564	34.60052884
680.75	34.5929183
680.936	34.61085833
681.123	34.61168439
681.309	34.63457155
681.495	34.66033871
681.681	34.71579319
681.867	34.73747467
682.054	34.74271283
682.24	34.75647448
682.426	34.77549688
682.612	34.79321535
682.798	34.82335624
682.984	34.83618594
683.17	34.8425069
683.356	34.8860487
683.542	34.9395542
683.728	34.95271549
683.914	34.99118261
684.1	35.03354844
684.286	35.0915155
684.472	35.13092971
684.658	35.22020257
684.844	35.28028402
685.03	35.33042298
685.216	35.37896401
685.402	35.40989665
685.588	35.438349
685.774	35.51405433
685.96	35.57403102
686.145	35.61809261
686.331	35.67441236
686.517	35.74768368
686.703	35.80755551
686.889	35.87175586
687.074	35.94735996
687.26	35.98265242
687.446	36.02465026
687.631	36.07757332
687.817	36.11217736
688.003	36.16562721
688.189	36.18379222
688.374	36.20552193
688.56	36.22307138
688.745	36.25348718
688.931	36.30287277
689.117	36.32399303
689.302	36.38055126
689.488	36.41263403
689.673	36.43759325
689.859	36.47502028
690.044	36.51517431
690.23	36.53861707
690.415	36.55298229
690.601	36.56492286
690.786	36.58903957
690.972	36.61635117
691.157	36.656103
691.343	36.69512854
691.528	36.73290792
691.713	36.79452979
691.899	36.81903614
692.084	36.88484539
692.269	36.95818422
692.455	37.01208739
692.64	37.03182924
692.825	37.04810042
693.011	37.08098596
693.196	37.11424055
693.381	37.15494627
693.566	37.21484248
693.752	37.25668421
693.937	37.31572471
694.122	37.37643924
694.307	37.43236207
694.492	37.43938722
694.678	37.47613347
694.863	37.49871167
695.048	37.5175882
695.233	37.53351647
695.418	37.57880893
695.603	37.5791745
695.788	37.60955501
695.973	37.63791141
696.158	37.65685929
696.343	37.66417431
696.528	37.69956584
696.713	37.73969397
696.898	37.76053596
697.083	37.77199432
697.268	37.80163592
697.453	37.81078533
697.638	37.82717833
697.823	37.84194954
698.008	37.8718238
698.192	37.88907488
698.377	37.91854778
698.562	37.91945778
698.747	37.94736771
698.932	37.95276473
699.117	37.98481175
699.301	38.01256705
699.486	38.04797657
699.671	38.07569497
699.856	38.10422724
700.04	38.1096914
700.225	38.15394475
700.41	38.19929112
700.594	38.22883038
700.779	38.24434885
700.964	38.27096737
701.148	38.29073733
701.333	38.32379817
701.517	38.3526721
701.702	38.3446018
701.887	38.35666046
702.071	38.37889146
702.256	38.44678677
702.44	38.51724334
702.625	38.56240959
702.809	38.62514411
702.994	38.67240609
703.178	38.7045698
703.362	38.72879369
703.547	38.73283004
703.731	38.72979809
703.916	38.77097854
704.1	38.81501786
704.284	38.8332959
704.469	38.87105617
704.653	38.91440891
704.837	38.94291823
705.022	38.98622515
705.206	39.02378291
705.39	39.0526984
705.575	39.10896717
705.759	39.1249304
705.943	39.15811578
706.127	39.16126369
706.311	39.20274783
706.496	39.22385484
706.68	39.25236417
706.864	39.32757346
707.048	39.34896866
707.232	39.39205697
707.416	39.45355782
707.6	39.51623704
707.785	39.54198725
707.969	39.54686036
708.153	39.56879557
708.337	39.58183632
708.521	39.64239395
708.705	39.6799599
708.889	39.7117136
709.073	39.71349863
709.257	39.76212312
709.441	39.80826183
709.624	39.80419436
709.808	39.82963348
709.992	39.85324636
710.176	39.82272569
710.36	39.84896669
710.544	39.87666151
710.728	39.82960042
710.912	39.83110352
711.095	39.82980779
711.279	39.83292548
711.463	39.84962406
711.647	39.86082217
711.83	39.82793909
712.014	39.83117308
712.198	39.86729771
712.382	39.83708025
712.565	39.78961525
712.749	39.77899514
712.933	39.7600829
713.116	39.71654998
713.3	39.70233389
713.483	39.72762592
713.667	39.71185103
713.851	39.69445027
714.034	39.66780643
714.218	39.65070364
714.401	39.62767765
714.585	39.62855221
714.768	39.63990218
714.952	39.64185876
715.135	39.64363695
715.319	39.6057773
715.502	39.60194603
715.686	39.65339995
715.869	39.6370065
716.052	39.59718244
716.236	39.60587832
716.419	39.6586682
716.602	39.69913704
716.786	39.73592964
716.969	39.73160363
717.152	39.75861862
717.336	39.77525214
717.519	39.8084209
717.702	39.83631873
717.885	39.8870614
718.069	39.93235866
718.252	39.93725049
718.435	39.92453177
718.618	39.91184627
718.801	39.90715852
718.985	39.87535682
719.168	39.86614178
719.351	39.87177335
719.534	39.85390263
719.717	39.92316476
719.9	39.87848843
720.083	39.85826679
720.266	39.82434254
720.449	39.79447011
720.632	39.75960573
720.815	39.78365891
720.998	39.75866635
721.181	39.74165889
721.364	39.72668859
721.547	39.74157364
721.73	39.77634638
721.913	39.76015784
722.096	39.79241083
722.279	39.81904361
722.461	39.81474045
722.644	39.79647286
722.827	39.84604322
723.01	39.89196433
723.193	39.92410256
723.376	39.92186713
723.558	39.90521241
723.741	39.9767135
723.924	40.01234126
724.107	40.10342591
724.289	40.10620121
724.472	40.16092455
724.655	40.15343734
724.837	40.12235248
725.02	40.12305621
725.203	40.16631396
725.385	40.16526745
725.568	40.13619296
725.75	40.09626296
725.933	40.09710906
726.115	40.07259851
726.298	40.16628563
726.481	40.19585768
726.663	40.17851483
726.845	40.11796049
727.028	40.04392311
727.21	40.03186061
727.393	39.96460282
727.575	39.92274146
727.758	39.93456845
727.94	39.89644736
728.122	39.86289933
728.305	39.85467705
728.487	39.92468728
728.67	40.01006304
728.852	40.00963394
729.034	39.9656309
729.216	39.97344585
729.399	40.01691601
729.581	40.02571954
729.763	40.04906748
729.945	40.10274771
730.128	40.06503112
730.31	40.09898622
730.492	40.09345888
730.674	40.12357656
730.856	40.17361684
731.039	40.17136388
731.221	40.23619338
731.403	40.27634979
731.585	40.25997919
731.767	40.27390332
731.949	40.27362761
732.131	40.31743561
732.313	40.26947692
732.495	40.24065709
732.677	40.28957393
732.859	40.32929069
733.041	40.35625947
733.223	40.37428889
733.405	40.41350198
733.587	40.42116158
733.769	40.36655825
733.951	40.39067306
734.132	40.3574998
734.314	40.46329909
734.496	40.53277787
734.678	40.59148668
734.86	40.63478096
735.042	40.64758264
735.223	40.70732635
735.405	40.72436157
735.587	40.69833273
735.769	40.75629787
735.95	40.77572823
736.132	40.80475176
736.314	40.7864219
736.495	40.82372398
736.677	40.85097565
736.859	40.87557916
737.04	40.85922877
737.222	40.88328508
737.403	40.85682089
737.585	40.95205902
737.767	40.98538284
737.948	41.02408832
738.13	40.94735228
738.311	40.94313234
738.493	40.98951414
738.674	41.05087528
738.856	41.05990526
739.037	41.08354344
739.219	41.16216369
739.4	41.2175775
739.581	41.24943475
739.763	41.18574072
739.944	41.2308673
740.125	41.31438084
740.307	41.29978015
740.488	41.30733208
740.669	41.30074679
740.851	41.29900121
741.032	41.34612138
741.213	41.33373071
741.395	41.32492676
741.576	41.25233038
741.757	41.30824062
741.938	41.26254706
742.119	41.28306352
742.301	41.24621335
742.482	41.19812392
742.663	41.17564672
742.844	41.20731453
743.025	41.22934088
743.206	41.22811889
743.387	41.21538208
743.568	41.33156105
743.749	41.32762313
743.93	41.2679182
744.111	41.28795896
744.292	41.29941236
744.473	41.29069046
744.654	41.31162851
744.835	41.27696072
745.016	41.38748733
745.197	41.37706324
745.378	41.44867047
745.559	41.42878506
745.74	41.53769631
745.921	41.59006931
746.102	41.54760309
746.282	41.59797338
746.463	41.61061702
746.644	41.55305422
746.825	41.49622594
747.006	41.5695165
747.186	41.63516463
747.367	41.57627339
747.548	41.56561586
747.728	41.5355278
747.909	41.57352611
748.09	41.51821983
748.27	41.58883484
748.451	41.62336758
748.632	41.66613727
748.812	41.67056549
748.993	41.72770306
749.173	41.71713678
749.354	41.74200071
749.535	41.78300526
749.715	41.7843689
749.896	41.81447767
750.076	41.83404978
750.257	41.84723571
750.437	41.85233816
750.618	41.9494674
750.798	41.90822775
750.978	41.83052351
751.159	41.86505128
751.339	41.90802713
751.52	42.01953654
751.7	41.9498964
751.88	42.03770842
752.061	42.04801639
752.241	41.99104176
752.421	41.93229381
752.601	41.94766929
752.782	41.90976127
752.962	41.88055834
753.142	41.90283361
753.322	41.91893741
753.503	41.86716484
753.683	41.98464841
753.863	42.04815292
754.043	42.08858808
754.223	42.08837571
754.403	42.03212113
754.583	42.07677274
754.764	42.14136606
754.944	42.10103991
755.124	42.07710015
755.304	42.06156836
755.484	42.12329951
755.664	42.12938319
755.844	42.07358051
756.024	42.11130693
756.204	42.14580834
756.384	42.12687371
756.564	42.1446927
756.743	42.13509401
756.923	42.08835921
757.103	42.03813373
757.283	42.06498469
757.463	41.94216624
757.643	41.88152561
757.823	41.89823943
758.002	41.88157338
758.182	41.90219062
758.362	41.87175265
758.542	41.79938847
758.721	41.79516653
758.901	41.82368036
759.081	41.74629217
759.261	41.67746147
759.44	41.61538508
759.62	41.5877109
759.8	41.57040602
759.979	41.58941368
760.159	41.49344774
760.338	41.45024483
760.518	41.45440229
760.698	41.43399462
760.877	41.39004014
761.057	41.36547819
761.236	41.36488341
761.416	41.30929986
761.595	41.24339279
761.775	41.27238184
761.954	41.19922765
762.133	41.20300881
762.313	41.24308238
762.492	41.28258104
762.672	41.25186833
762.851	41.29144724
763.03	41.32409955
763.21	41.36930736
763.389	41.37838888
763.568	41.42475801
763.748	41.4419479
763.927	41.46738765
764.106	41.44566674
764.286	41.47315797
764.465	41.48501351
764.644	41.59027947
764.823	41.58217147
765.002	41.62954615
765.182	41.65583732
765.361	41.74193765
765.54	41.76326183
765.719	41.82880966
765.898	41.83796745
766.077	41.84373224
766.256	41.86178475
766.435	41.96307768
766.614	42.05261664
766.793	42.06220837
766.972	42.08181032
767.151	42.1076676
767.33	42.07927061
767.509	42.15489852
767.688	42.24935298
767.867	42.40857063
768.046	42.50975774
768.225	42.50871328
768.404	42.40753864
768.583	42.4724137
768.762	42.50240408
768.94	42.53945316
769.119	42.58452592
769.298	42.61492695
769.477	42.68424151
769.656	42.7335362
769.834	42.76376004
770.013	42.74716562
770.192	42.78619263
770.37	42.74071882
770.549	42.80033602
770.728	42.7671311
770.906	42.8272693
771.085	42.97130119
771.264	42.88220635
771.442	42.8120644
771.621	42.77381464
771.799	42.72406149
771.978	42.84797201
772.157	42.87809384
772.335	42.89478986
772.514	42.79984653
772.692	42.92407617
772.871	42.92901738
773.049	42.91784376
773.228	42.9066581
773.406	42.84931964
773.584	42.93594563
773.763	43.03441793
773.941	42.86723716
774.119	42.96800353
774.298	43.08778733
774.476	43.2061653
774.655	43.14534585
774.833	43.1861656
775.011	43.08979789
775.189	43.1410586
775.368	43.16781158
775.546	43.1918702
775.724	43.11691592
775.902	43.28329003
776.08	43.38055745
776.259	43.57205243
776.437	43.39818132
776.615	43.33494427
776.793	43.38160885
776.971	43.37896144
777.149	43.42484873
777.327	43.35323536
777.505	43.29953278
777.683	43.38153125
777.861	43.21387775
778.04	43.11809605
778.218	43.11526408
778.395	43.16588538
778.573	42.97997485
778.751	43.09816846
778.929	43.13298938
779.107	43.14272596
779.285	43.16369768
779.463	43.34631401
779.641	43.17138264
779.819	43.14599082
779.997	42.85206273
780.174	42.99833647
780.352	43.05103038
780.53	43.1401378
780.708	43.15557452
780.886	43.19246281
781.063	43.24008004
781.241	43.33138092
781.419	43.25472439
781.596	43.25509746
781.774	43.21973098
781.952	42.9697345
782.129	42.89426754
782.307	42.96324585
782.485	42.8089634
782.662	42.71832976
782.84	42.69164728
783.017	42.63171887
783.195	42.61440572
783.372	42.69762778
783.55	42.81583477
783.727	43.07077799
783.905	43.00489452
784.082	42.95720025
784.26	42.74471499
784.437	42.794469
784.615	42.81343997
784.792	42.72530493
784.969	42.51563781
785.147	42.63767641
785.324	42.74184865
785.501	42.72639895
785.679	42.89508508
785.856	43.12794438
786.033	43.09126846
786.211	43.10673399
786.388	43.20711149
786.565	43.18993848
786.742	43.1947528
786.92	43.14648712
787.097	43.1884886
787.274	43.0544396
787.451	42.97805081
787.628	42.89372953
787.805	42.82654554
787.982	42.85356963
788.16	42.75538528
788.337	42.89984354
788.514	42.80984117
788.691	42.93295176
788.868	42.71368799
789.045	42.56070364
789.222	42.62550096
789.399	42.68763675
789.576	42.52725789
789.753	42.58433545
789.93	42.71261108
790.106	42.90405242
790.283	42.90360718
790.46	42.77983525
790.637	42.88338409
790.814	42.79040747
790.991	42.87740266
791.168	42.93711025
791.344	43.04558274
791.521	43.2572539
791.698	43.46199368
791.875	43.42387399
792.051	43.16996575
792.228	43.28301908
792.405	43.00484207
792.581	43.24406871
792.758	43.29412445
792.935	43.31240106
793.111	43.26501455
793.288	43.28029504
793.465	43.03666754
793.641	43.0532934
793.818	42.89766567
793.994	42.96871789
794.171	42.82089386
794.347	42.54940746
794.524	42.6492816
794.7	42.44935057
794.877	42.33185916
795.053	42.40080007
795.23	42.25043087
795.406	42.04239103
795.583	41.97484835
795.759	41.89407812
795.935	42.00928204
796.112	42.22772366
796.288	42.09364569
796.464	42.08954501
796.641	41.9334784
796.817	41.86119197
796.993	41.91895179
797.169	42.15930479
797.346	42.34216204
797.522	42.42903102
797.698	42.24131912
797.874	42.55518873
798.051	42.68010095
798.227	42.56043648
798.403	42.49133172
798.579	42.49219904
798.755	42.48675867
798.931	42.44360165
799.107	42.39433642
799.283	42.56479937
799.459	42.74359383
799.635	42.77243646
799.811	42.77579269
799.987	42.93185161
800.163	43.12825964
800.339	43.02555724
800.515	43.01049497
800.691	43.09950201
800.867	43.1912241
801.043	43.00357268
801.219	42.79847988
801.395	43.0778363
801.571	42.96594676
801.746	42.78444368
801.922	43.03701491
802.098	43.28532833
802.274	43.4112305
802.45	43.40498537
802.625	43.39250029
802.801	43.54016634
802.977	43.46419446
803.152	43.5145877
803.328	43.10735051
803.504	42.98838022
803.679	43.01128242
803.855	43.5987079
804.031	43.72133283
804.206	44.08172221
804.382	43.73607722
804.557	43.21926282
804.733	43.31717993
804.909	43.32568218
805.084	43.00851181
805.26	43.1429412
805.435	43.26558645
805.61	43.01297949
805.786	42.99051787
805.961	42.91428918
806.137	42.772068
806.312	42.93879913
806.488	43.24916019
806.663	43.44864527
806.838	43.52415204
807.014	43.94529291
807.189	44.26163319
807.364	44.17772338
807.54	43.47615842
807.715	43.63766525
807.89	43.00020338
808.065	43.14485803
808.241	43.48747573
808.416	43.58062551
808.591	43.5108027
808.766	43.68336914
808.941	43.44226042
809.116	43.37925101
809.291	43.69218226
809.467	43.44093079
809.642	43.12433944
809.817	42.73355466
809.992	42.43518286
810.167	41.8576784
810.342	41.5527544
810.517	41.51033723
810.692	41.21038757
810.867	41.07213826
811.042	40.90696267
811.217	41.0575338
811.392	41.15167059
811.567	41.39380453
811.741	41.37301028
811.916	41.47241483
812.091	41.19336506
812.266	40.93535109
812.441	41.05775494
812.616	41.54533892
812.79	41.19157743
812.965	41.08807185
813.14	41.09294699
813.315	41.68833289
813.489	42.14615471
813.664	42.29745103
813.839	42.7289476
814.013	42.69484379
814.188	42.49628714
814.363	42.62031486
814.537	42.26858279
814.712	42.39028829
814.887	41.94703377
815.061	41.40388319
815.236	41.48857237
815.41	41.46769368
815.585	41.48081857
815.759	41.40932226
815.934	41.26080195
816.108	41.14479664
816.283	40.6576147
816.457	41.00405782
816.631	40.68760002
816.806	40.9057857
816.98	40.68839463
817.155	40.82929813
817.329	40.90437271
817.503	40.74733613
817.678	41.0121161
817.852	40.81230457
818.026	40.77296658
818.201	41.24283546
818.375	41.3669439
818.549	41.2077483
818.723	41.10769992
818.897	40.98939352
819.072	40.96971964
819.246	40.91223643
819.42	40.88492457
819.594	41.12330965
819.768	41.02654308
819.942	41.06761673
820.116	41.09013835
820.29	41.14970948
820.465	41.19389312
820.639	41.1349939
820.813	41.06103221
820.987	41.05158028
821.161	40.96878804
821.335	40.75555923
821.509	40.79119307
821.682	40.79225884
821.856	40.72872464
822.03	40.55465067
822.204	40.45347624
822.378	40.67315538
822.552	40.57522865
822.726	40.63597874
822.9	40.62098124
823.073	40.69264275
823.247	40.5423244
823.421	40.54961368
823.595	40.66963086
823.768	40.6028642
823.942	40.58691384
824.116	40.27337981
824.289	40.39081222
824.463	40.50578709
824.637	40.59731268
824.81	40.77684752
824.984	41.09627062
825.158	41.18643718
825.331	41.12401769
825.505	41.01400221
825.678	41.24721441
825.852	41.37774638
826.025	41.38154336
826.199	41.67836005
826.372	41.654854
826.546	41.5314594
826.719	41.74753877
826.893	41.61595891
827.066	41.56256987
827.24	41.6547156
827.413	41.59379423
827.586	41.49437244
827.76	41.68645933
827.933	41.65069208
828.106	41.70844392
828.28	41.41182429
828.453	40.88999266
828.626	41.05006105
828.799	40.63296481
828.973	41.00416224
829.146	40.60047826
829.319	40.82752536
829.492	41.23189301
829.665	41.45114324
829.839	41.39318518
830.012	41.41928655
830.185	41.88110736
830.358	41.81585877
830.531	42.22086171
830.704	42.51303737
830.877	42.01031304
831.05	42.26700829
831.223	42.2290345
831.396	42.36041646
831.569	42.17204572
831.742	42.24906208
831.915	42.48676436
832.088	43.30008582
832.261	43.09918006
832.434	43.7346687
832.607	43.66022161
832.779	43.76483752
832.952	43.86274055
833.125	43.83747467
833.298	43.66920755
833.471	43.54403496
833.643	43.02483238
833.816	42.39132585
833.989	41.70488893
834.162	41.5907711
834.334	41.4385772
834.507	40.96981819
834.68	40.96257268
834.852	40.94254134
835.025	40.91116589
835.198	41.24534665
835.37	40.2725896
835.543	39.78960612
835.715	38.57574324
835.888	38.9352476
836.061	37.51626213
836.233	38.10951315
836.406	38.3093732
836.578	38.4025003
836.751	38.91226805
836.923	38.48354793
837.095	39.0600763
837.268	39.86812818
837.44	41.07890986
837.613	41.30274832
837.785	40.23500633
837.957	40.80157982
838.13	42.50953984
838.302	40.90929613
838.474	41.11544641
838.647	42.136677
838.819	41.87313468
838.991	42.07828295
839.163	41.62388476
839.336	42.04356794
839.508	40.82908632
839.68	43.24163004
839.852	42.73443092
840.024	43.60322677
840.196	41.84092488
840.368	43.61808376
840.541	42.08689702
840.713	40.06098858
840.885	38.03910083
841.057	36.71226732
841.229	39.05647003
841.401	40.33024567
841.573	39.00390787
841.745	37.78636005
841.917	39.23124944
842.089	37.56749337
842.261	35.67339277
842.432	35.65678568
842.604	35.820752
842.776	35.23052758
842.948	34.36093825
843.12	37.18597955
843.292	32.77783355
843.464	31.38776777
843.635	29.29942916
843.807	30.31190068
843.979	24.49932552
844.151	24.86863271
844.322	23.26316938
844.494	27.3084051
844.666	33.8899264
844.837	28.29453167
845.009	29.85623537
845.181	28.80986146
845.352	27.07121694
845.524	26.2212895
845.695	25.46499831
845.867	20.41818869
846.039	24.09180328
846.21	24.57005733
846.382	26.02077109
846.553	27.9944095
846.725	26.69116646
846.896	25.82470669
847.068	26.05663868
847.239	24.93259543
847.41	21.0661045
847.582	26.18728599
847.753	23.80524345
847.925	26.87250702
848.096	28.52264291
848.267	21.87546221
848.439	23.76345764
848.61	23.97807361
848.781	24.44518605
848.952	22.83658066
849.124	19.06942663
849.295	24.6496941
849.466	28.25893651
849.637	19.73708234
849.808	16.31783664
849.98	18.41074426
850.151	13.85438563
850.322	13.65533691
850.493	16.87110396
850.664	18.69100063
850.835	25.41728291
851.006	29.6350365
851.177	26.50098966
851.348	30.42187831
851.519	34.56602132
851.69	23.20107599
851.861	19.87367471
852.032	10.51288002
852.203	-1.43214367
852.374	1.99587061
852.545	-2.18361118
852.716	5.61411056
852.887	3.78598957
853.057	8.15180777
853.228	11.43038242
853.399	11.37172775
853.57	4.12517781
853.741	-1.08951079
853.911	-1.2109624
854.082	-6.06404724
854.253	-8.56022653
854.424	-13.96765385
854.594	-17.08307942
854.765	-13.55093966
854.936	-11.73957274
855.106	-20.10972779
855.277	-11.28729397
855.447	-5.49540347
855.618	-2.76663147
855.789	5.62173459
855.959	7.55193166
856.13	14.69262665
856.3	16.09258247
856.471	11.63283319
856.641	9.37198068
856.812	5.51738497
856.982	4.88487196
857.153	5.9371362
857.323	8.635619
857.493	5.44035131
857.664	6.77382319
857.834	5.09895227
858.004	8.07017544
858.175	9.16047716
858.345	7.2027521
858.515	4.54447555
858.686	10.86824529
858.856	8.87497301
859.026	7.27148393
859.196	8.59079131
859.367	10.11325253
859.537	8.71473354
859.707	11.64141938
859.877	4.10654828
860.047	1.55128502
860.217	2.07914152
860.387	3.34969063
860.558	-0.31191516
860.728	0.10168802
860.898	3.25186831
861.068	5.86811857
861.238	7.2544404
861.408	9.06462936
861.578	6.30975143
861.748	16.89261889
861.918	14.35239207
862.088	19.26238614
862.257	16.09944485
862.427	19.1764978
862.597	20.74303406
862.767	26.76528049
862.937	36.54018524
863.107	35.52594273
863.277	30.49200877
863.446	35.94283939
863.616	41.43646409
863.786	41.89912651
863.956	49.68960864
864.125	52.32657722
864.295	52.39543726
864.465	47.74644493
864.634	41.62931716
864.804	40.05409393
864.974	43.14333413
865.143	50.13781007
865.313	43.3260922
865.482	45.14882981
865.652	42.40290711
865.822	48.53878269
865.991	43.77801494
866.161	39.39393939
866.33	33.97970688
866.5	26.77426487
866.669	18.97724607
866.838	21.57194169
867.008	16.74449633
867.177	14.37951412
867.347	13.85472267
867.516	10.40308955
867.685	25.4463223
867.855	30.63553826
868.024	37.41843972
868.193	38.37116155
868.363	37.2885906
868.532	40.33179222
868.701	38.03320562
868.87	35.92602665
869.04	41.38406396
869.209	45.03096432
869.378	44.50651769
869.547	43.76237624
869.716	46.42563681
869.885	57.7436414
870.055	54.497058
870.224	58.20585948
870.393	52.40657698
870.562	49.46662603
870.731	50.67826087
870.9	55.6307068
871.069	55.70661896
871.238	55.5005306
871.407	58.91553702
871.576	38.20865481
871.745	44.94277761
871.914	47.73703337
872.083	39.91644512
872.251	34.34076313
872.42	34.61675579
872.589	33.76140588
872.758	20.45528455
872.927	12.7911143
873.096	12.75851098
873.264	13.70381146
873.433	6.83159966
873.602	14.66732624
873.771	12.24744325
873.939	21.41583906
874.108	33.56843729
874.277	39.39393939
874.445	33.3061391
874.614	29.19583728
874.783	22.57810965
874.951	15.92833235
875.12	25.34728486
875.288	22.39018318
875.457	22.66989452
875.625	23.52842529
875.794	25.62589699
875.962	26.78598746
876.131	20.52817442
876.299	25.48054744
876.468	26.24675919
876.636	30.38442979
876.805	31.7260099
876.973	32.80980053
877.141	34.14258848
877.31	38.69397348
877.478	41.20818139
877.647	39.78072329
877.815	38.12703836
877.983	38.26366559
878.151	44.14743483
878.32	44.06699321
878.488	42.50446646
878.656	39.68755485
878.824	39.11498134
878.992	36.1836017
879.161	39.80257031
879.329	44.5522798
879.497	41.49085795
879.665	47.6963011
879.833	46.58587742
880.001	42.2961423
880.169	32.51942286
880.337	28.7034724
880.505	27.40423252
880.673	32.37234302
880.841	30.27798648
881.009	23.04654443
881.177	31.47050522
881.345	33.62472682
881.513	24.25919896
881.681	19.00497512
881.849	12.43680485
882.017	5.49376475
882.185	9.82174065
882.352	-3.5236938
882.52	4.57256461
882.688	-2.22595548
882.856	-39.7276495
883.024	-87.80269058
883.191	-102.2589053
883.359	-66.49819495
883.527	-85.97320725
883.694	-45.88584136
883.862	-17.20078483
884.03	-30.30900723
884.197	-41.22287968
884.365	-65.51724138
884.533	-51.33724723
884.7	-69.67608546
884.868	-74.57249071
885.035	-49.74358974
885.203	-64.90118577
885.37	-77.54691689
885.538	-51.72926739
885.705	-51.88679245
885.873	-7.68170858
886.04	-15.54332875
886.208	-19.87110634
886.375	3.64550597
886.542	30.37441111
886.71	44.97607656
886.877	30.01680672
