Data from tintauv_1g-BA-sulfate_Reflection_001.txt Node
Date: Thu Nov 23 12:52:48 AEST 2023
User: uqkchene_local
Spectrometer: USB4E02642
Trigger mode: 4
Integration Time (sec): 2.340000E-1
Scans to average: 10
Electric dark correction enabled: true
Nonlinearity correction enabled: false
Boxcar width: 10
XAxis mode: Wavelengths
Number of Pixels in Spectrum: 3648
>>>>>Begin Spectral Data<<<<<
179.217	599.58115183
179.432	935.0877193
179.647	388.09664113
179.862	342.13903743
180.077	352.94117647
180.293	369.46264744
180.508	780.02894356
180.723	595.52238806
180.938	1370.76566125
181.153	-1197.26027397
181.368	-1039.14893617
181.583	-492.70216963
181.798	-329.92907801
182.013	-214.32896065
182.228	-73.60501567
182.443	-9.54930834
182.658	-9.03322135
182.873	8.34630956
183.088	1.94993412
183.303	-3.00375469
183.518	4.13203515
183.733	-8.24380618
183.948	-10.5561614
184.162	-13.68442051
184.377	-20.4172051
184.592	-28.26657338
184.807	-30.52023121
185.022	-24.68831769
185.237	-28.11909949
185.452	-19.81881533
185.667	-8.05520349
185.882	-6.49198279
186.096	-6.84660961
186.311	-11.79114342
186.526	-5.70216152
186.741	-6.51285432
186.956	-8.58183781
187.17	-10.9825784
187.385	-10.25779457
187.6	-10.22291637
187.815	-11.12214499
188.03	-10.57319351
188.244	-7.33801717
188.459	-2.57550207
188.674	-1.1895684
188.889	4.53707642
189.103	10.44542479
189.318	10.8432016
189.533	5.94938582
189.747	9.18262904
189.962	1.82705938
190.177	-5.91373266
190.391	-5.44967711
190.606	-1.49812734
190.821	5.3344744
191.035	-2.84386879
191.25	-2.93826812
191.465	-7.03376769
191.679	-0.45370764
191.894	-4.84399487
192.109	-5.65430371
192.323	-5.13178078
192.538	-10.10185573
192.752	-11.69027644
192.967	-9.68409436
193.181	-7.99375081
193.396	-7.98924008
193.611	-16.19274408
193.825	-14.32827351
194.04	-19.20519561
194.254	-19.15062828
194.469	-16.52213601
194.683	-19.31034483
194.898	-13.17936875
195.112	-4.20392157
195.327	-8.17204301
195.541	-9.06344411
195.756	-12.41523213
195.97	-13.28372093
196.184	-9.56719818
196.399	-4.90641468
196.613	-7.52220752
196.828	-3.79216044
197.042	0.14654699
197.257	-2.07272089
197.471	-6.95268781
197.685	-9.57466397
197.9	-12.72206304
198.114	-8.73000941
198.328	-7.76956604
198.543	-1.6526194
198.757	-1.2805779
198.971	-3.01096384
199.186	-2.74348422
199.4	-8.59535472
199.614	-17.35083929
199.829	-18.83319638
200.043	-17.20631941
200.257	-16.62058871
200.471	-17.66140836
200.686	-26.65082329
200.9	-26.50241385
201.114	-23.7584557
201.328	-31.01999664
201.543	-24.29936822
201.757	-21.69917782
201.971	-16.99325913
202.185	-13.61240777
202.399	-8.87815189
202.614	-6.56646724
202.828	-4.57929484
203.042	-2.46119424
203.256	-9.84606851
203.47	-4.74074074
203.684	2.74504367
203.899	0.14198495
204.113	-2.34562668
204.327	0.17160017
204.541	0.47754067
204.755	-2.18690771
204.969	-0.8258579
205.183	-0.2734108
205.397	-3.93733537
205.611	-7.53358261
205.825	-6.18082507
206.039	-11.65189598
206.253	-10.23336715
206.467	-15.66321003
206.681	-21.19556735
206.895	-22.00398957
207.109	-16.31918404
207.323	-19.77746435
207.537	-25.73493976
207.751	-21.16162433
207.965	-24.35660219
208.179	-33.71360463
208.393	-28.31239065
208.607	-25.0740683
208.821	-27.54451887
209.035	-29.49469349
209.249	-26.14440774
209.463	-22.17228464
209.677	-18.52219543
209.891	-15.81557432
210.104	-15.71937228
210.318	-16.86170882
210.532	-14.85161126
210.746	-21.49496007
210.96	-24.25253433
211.174	-20.79860679
211.387	-22.11430706
211.601	-28.72435326
211.815	-27.92870313
212.029	-29.56566568
212.243	-25.62241962
212.456	-24.24693194
212.67	-19.44819129
212.884	-19.13777664
213.098	-19.69268593
213.311	-21.91354329
213.525	-21.34844728
213.739	-23.12068757
213.953	-30.37538462
214.166	-29.52144999
214.38	-26.76373263
214.594	-27.25678046
214.807	-26.39175258
215.021	-27.58427752
215.235	-18.38924351
215.448	-12.15530251
215.662	-8.9359874
215.876	-12.84570047
216.089	-8.83450231
216.303	-9.90247562
216.516	-7.1714328
216.73	-10.37948103
216.944	-13.65240067
217.157	-15.59673832
217.371	-21.16777531
217.584	-24.88312472
217.798	-16.63527025
218.011	-9.95307834
218.225	-12.86946684
218.439	-10.6103994
218.652	-14.3131179
218.866	-23.00939473
219.079	-21.35329158
219.293	-19.32410302
219.506	-23.90178968
219.719	-28.73027799
219.933	-26.03822388
220.146	-29.05472637
220.36	-27.55280506
220.573	-26.99827105
220.787	-23.59920897
221	-29.80194072
221.214	-34.71941865
221.427	-29.97768736
221.64	-32.02924056
221.854	-26.66493574
222.067	-26.43136198
222.28	-29.57505591
222.494	-36.08434576
222.707	-33.51056578
222.92	-27.35341918
223.134	-28.53963151
223.347	-28.8083158
223.56	-26.89134224
223.774	-29.05602995
223.987	-24.90069232
224.2	-17.73483629
224.414	-18.22911248
224.627	-20.41153965
224.84	-18.28643164
225.053	-20.79641511
225.267	-20.85374388
225.48	-15.72776666
225.693	-14.07743555
225.906	-15.90677888
226.119	-17.90586322
226.333	-21.28517738
226.546	-19.87555867
226.759	-16.22899603
226.972	-14.55255959
227.185	-9.42376494
227.398	-11.82624517
227.612	-9.06503175
227.825	-5.15975669
228.038	-1.85703557
228.251	-0.15846814
228.464	-1.35766891
228.677	-4.22832981
228.89	-6.78207871
229.103	-6.8352
229.316	-7.45611314
229.529	-5.42752271
229.743	-6.49234618
229.956	-4.31424157
230.169	-4.96286107
230.382	-2.88651009
230.595	-1.26928435
230.808	0.92038201
231.021	1.39914122
231.234	0.42912316
231.447	-0.0376914
231.66	-1.48107263
231.872	-0.46722674
232.085	0.00886407
232.298	-0.82333059
232.511	-2.57969889
232.724	-2.72027883
232.937	-3.7180287
233.15	-4.39506776
233.363	-2.07120247
233.576	0.27683214
233.789	0.51879727
234.002	-0.48618311
234.214	1.13773487
234.427	-0.47948675
234.64	0.56167081
234.853	-0.98850937
235.066	-1.06825286
235.279	-1.38217411
235.491	-2.3299188
235.704	-2.14452214
235.917	-0.90426783
236.13	-0.80124638
236.342	-0.87088136
236.555	-1.15935689
236.768	-0.74750322
236.981	-0.31930058
237.193	-0.60446455
237.406	-0.40686039
237.619	-0.25520009
237.832	-0.53100647
238.044	-0.48580618
238.257	-0.51031204
238.47	-0.32253164
238.682	-0.42291133
238.895	-0.30555014
239.108	-0.73817225
239.32	-0.29293906
239.533	-0.60043238
239.746	-0.52700265
239.958	-0.38643977
240.171	-0.45206111
240.383	-0.57450888
240.596	-0.40277653
240.808	-0.1392379
241.021	0.06219024
241.234	0.15082865
241.446	0.15451013
241.659	0.24213747
241.871	0.46712428
242.084	0.43809514
242.296	0.56786843
242.509	0.41001798
242.721	0.31805646
242.934	0.28986111
243.146	0.19361856
243.359	0.15639006
243.571	0.34951896
243.784	0.4339106
243.996	0.62552894
244.208	0.59945066
244.421	0.63796544
244.633	0.70553697
244.846	0.69393686
245.058	0.55217151
245.27	0.54477451
245.483	0.60582607
245.695	0.53104244
245.907	0.51604339
246.12	0.53432384
246.332	0.57631096
246.544	0.555114
246.757	0.46535511
246.969	0.44967388
247.181	0.53654834
247.394	0.57777327
247.606	0.6845767
247.818	0.69813325
248.03	0.67912396
248.243	0.60594229
248.455	0.58353927
248.667	0.59712662
248.879	0.64165053
249.092	0.57387282
249.304	0.54805923
249.516	0.6192459
249.728	0.51827416
249.94	0.42276999
250.153	0.34551275
250.365	0.48740579
250.577	0.4796472
250.789	0.44156792
251.001	0.44938413
251.213	0.54857812
251.425	0.66348515
251.637	0.54484821
251.85	0.55678121
252.062	0.5065274
252.274	0.59654988
252.486	0.59304496
252.698	0.6108125
252.91	0.6565425
253.122	0.57181909
253.334	0.54575031
253.546	0.62507985
253.758	0.6460646
253.97	0.79256463
254.182	0.87548066
254.394	0.7441827
254.606	0.85808714
254.818	0.6741542
255.03	0.77861803
255.242	0.76528499
255.454	0.85600865
255.666	0.79735728
255.877	0.76899343
256.089	0.86024866
256.301	0.86683493
256.513	0.78579357
256.725	0.78098867
256.937	0.77813142
257.149	0.80766177
257.361	0.74595362
257.572	0.77143699
257.784	0.72761406
257.996	0.70873916
258.208	0.69928019
258.42	0.59091388
258.631	0.60045027
258.843	0.64089177
259.055	0.65925978
259.267	0.71426225
259.479	0.66640281
259.69	0.65818521
259.902	0.61658873
260.114	0.59756821
260.325	0.57038369
260.537	0.53898291
260.749	0.55341175
260.961	0.58623606
261.172	0.54809228
261.384	0.53970985
261.596	0.52776072
261.807	0.52961613
262.019	0.52699732
262.23	0.57277462
262.442	0.56443023
262.654	0.54480683
262.865	0.6032901
263.077	0.59206851
263.288	0.60883164
263.5	0.60185926
263.712	0.57481905
263.923	0.60140815
264.135	0.61937947
264.346	0.69377536
264.558	0.72837337
264.769	0.75582674
264.981	0.7437417
265.192	0.71434564
265.404	0.76984622
265.615	0.80690596
265.827	0.79419585
266.038	0.72200862
266.25	0.76781292
266.461	0.84879327
266.673	0.84267483
266.884	0.83046109
267.095	0.81744331
267.307	0.87077382
267.518	0.86325619
267.73	0.81729069
267.941	0.78904557
268.152	0.81211788
268.364	0.7723258
268.575	0.7539623
268.786	0.69842826
268.998	0.68746384
269.209	0.717185
269.42	0.78860875
269.632	0.76713793
269.843	0.7295435
270.054	0.75574306
270.265	0.80529229
270.477	0.79170642
270.688	0.78434765
270.899	0.74926676
271.11	0.72783306
271.322	0.77619241
271.533	0.75424877
271.744	0.7093257
271.955	0.70214724
272.166	0.72564321
272.378	0.71572203
272.589	0.70805389
272.8	0.72303471
273.011	0.76360564
273.222	0.79593702
273.433	0.82544684
273.644	0.79194573
273.856	0.68771557
274.067	0.68715213
274.278	0.71937389
274.489	0.7288067
274.7	0.74513184
274.911	0.80851185
275.122	0.82516368
275.333	0.83001642
275.544	0.87273669
275.755	0.83368301
275.966	0.86969681
276.177	0.87311175
276.388	0.90334942
276.599	0.87379766
276.81	0.88127718
277.021	0.87535516
277.232	0.9127689
277.443	0.84732743
277.654	0.86172309
277.865	0.83718415
278.076	0.86648039
278.287	0.93674274
278.497	0.93785023
278.708	0.93408085
278.919	0.87833869
279.13	0.85342863
279.341	0.86296299
279.552	0.809
279.763	0.81229013
279.973	0.80584115
280.184	0.81035926
280.395	0.78339478
280.606	0.78218626
280.817	0.80538522
281.027	0.88417935
281.238	0.89351207
281.449	0.91553357
281.66	0.89707212
281.87	0.90063672
282.081	0.88463447
282.292	0.86230837
282.503	0.82873318
282.713	0.84679424
282.924	0.9093295
283.135	0.88297571
283.345	0.89802078
283.556	0.92602081
283.767	0.91794127
283.977	0.92078419
284.188	0.899795
284.399	0.88977076
284.609	0.89900368
284.82	0.92593797
285.03	0.94350069
285.241	0.93835447
285.451	0.90945875
285.662	0.93591533
285.873	0.93225649
286.083	0.91257666
286.294	0.94569263
286.504	0.97056811
286.715	0.98046911
286.925	1.00011444
287.136	1.00913066
287.346	0.97477483
287.557	0.982966
287.767	1.01007765
287.978	0.97894037
288.188	0.96866033
288.399	1.01376183
288.609	0.98958286
288.819	0.99207061
289.03	1.00427537
289.24	1.03830197
289.451	0.99767844
289.661	0.92986132
289.871	0.86916738
290.082	0.81541984
290.292	0.7669901
290.502	0.79849441
290.713	0.77981647
290.923	0.79368701
291.133	0.82627872
291.344	0.77612782
291.554	0.75310898
291.764	0.77123879
291.974	0.77282649
292.185	0.74063361
292.395	0.77739208
292.605	0.82133635
292.815	0.79766326
293.026	0.845306
293.236	0.82337905
293.446	0.82462487
293.656	0.78037807
293.866	0.79865154
294.077	0.84351702
294.287	0.8904597
294.497	0.93843196
294.707	0.95265624
294.917	0.92187605
295.127	0.96779143
295.337	0.915684
295.548	0.93103043
295.758	0.95599275
295.968	0.95416368
296.178	0.93014176
296.388	0.91930279
296.598	0.91388656
296.808	0.89444692
297.018	0.87454391
297.228	0.88251645
297.438	0.87187976
297.648	0.91659708
297.858	0.90543085
298.068	0.93307998
298.278	0.95079247
298.488	0.93606623
298.698	0.93875092
298.908	0.89666866
299.118	0.89289564
299.328	0.89359682
299.538	0.81195901
299.748	0.82373509
299.957	0.81923724
300.167	0.81911427
300.377	0.85722195
300.587	0.87565513
300.797	0.92698592
301.007	0.92862726
301.217	0.92206592
301.426	0.90255929
301.636	0.89943172
301.846	0.91525014
302.056	0.87579232
302.266	0.86264668
302.475	0.84104033
302.685	0.80944594
302.895	0.82440936
303.105	0.78597573
303.314	0.83352367
303.524	0.87173555
303.734	0.88469041
303.944	0.918828
304.153	0.95791616
304.363	0.94506583
304.573	0.98836624
304.782	0.92032087
304.992	0.89026612
305.202	0.79702939
305.411	0.8487948
305.621	0.83020938
305.831	0.82618189
306.04	0.83162619
306.25	0.82515798
306.459	0.84980152
306.669	0.82464533
306.878	0.84405671
307.088	0.87304853
307.298	0.87118389
307.507	0.91664922
307.717	0.89374468
307.926	0.89559084
308.136	0.90006277
308.345	0.91054064
308.555	0.88011297
308.764	0.89303181
308.974	0.88062576
309.183	0.91829827
309.392	0.93226289
309.602	0.97300264
309.811	0.9080189
310.021	0.92665536
310.23	0.94728044
310.44	0.9093977
310.649	0.91611404
310.858	0.87500576
311.068	0.91792386
311.277	0.91246398
311.486	0.89202456
311.696	0.89772554
311.905	0.89766104
312.114	0.90532616
312.324	0.89074794
312.533	0.88688637
312.742	0.90657411
312.952	0.95512024
313.161	0.95566337
313.37	0.99084715
313.579	0.98019153
313.789	0.97195862
313.998	0.99898808
314.207	1.0385882
314.416	1.0530031
314.625	1.02924482
314.835	1.05985812
315.044	1.07560639
315.253	1.11033895
315.462	1.14492242
315.671	1.15115178
315.88	1.1995954
316.09	1.23296658
316.299	1.25463232
316.508	1.27382953
316.717	1.26019389
316.926	1.27116941
317.135	1.26757554
317.344	1.23262158
317.553	1.2365644
317.762	1.21717712
317.971	1.260408
318.18	1.26865856
318.389	1.27462023
318.598	1.27702593
318.807	1.24397296
319.016	1.20992901
319.225	1.18832575
319.434	1.16604578
319.643	1.21641251
319.852	1.18291789
320.061	1.1826258
320.27	1.17061587
320.479	1.18415391
320.688	1.10233188
320.897	1.09528184
321.105	1.10736512
321.314	1.12034642
321.523	1.07899242
321.732	1.05075673
321.941	1.00378977
322.15	0.99219854
322.359	0.96558146
322.567	0.95071387
322.776	0.93824917
322.985	0.97227272
323.194	0.96324607
323.403	1.0140815
323.611	1.02706434
323.82	1.03055873
324.029	0.98375366
324.237	0.94146452
324.446	0.95911277
324.655	0.94466809
324.864	0.88459236
325.072	0.91947981
325.281	0.93474335
325.49	0.91213063
325.698	0.86523018
325.907	0.86119179
326.116	0.87135613
326.324	0.92642377
326.533	0.90149452
326.741	0.89204227
326.95	0.9304978
327.159	0.90003397
327.367	0.84576236
327.576	0.85845595
327.784	0.85491121
327.993	0.86366154
328.201	0.84684627
328.41	0.84607196
328.618	0.843043
328.827	0.81634472
329.035	0.79894248
329.244	0.80242111
329.452	0.81418347
329.661	0.76169543
329.869	0.77473202
330.078	0.80532717
330.286	0.79021666
330.495	0.84450475
330.703	0.81348015
330.911	0.79877406
331.12	0.83533371
331.328	0.84639557
331.537	0.88755668
331.745	0.89247138
331.953	0.90334336
332.162	0.90486471
332.37	0.91928531
332.578	0.95219228
332.787	0.97211524
332.995	0.999001
333.203	0.99339128
333.411	0.98668224
333.62	1.0066691
333.828	1.02996067
334.036	1.05669596
334.244	1.07861683
334.453	1.07911151
334.661	1.13102124
334.869	1.1048416
335.077	1.11625885
335.285	1.10896105
335.494	1.10195166
335.702	1.06271478
335.91	1.03930187
336.118	1.07320318
336.326	1.06189447
336.534	1.04458181
336.742	1.06075148
336.951	1.04187745
337.159	1.05907638
337.367	1.06607753
337.575	1.0683871
337.783	1.0867179
337.991	1.10546478
338.199	1.07843503
338.407	1.0745318
338.615	1.06292222
338.823	1.07683227
339.031	1.08388836
339.239	1.06651681
339.447	1.06230333
339.655	1.11186607
339.863	1.09372953
340.071	1.08768264
340.279	1.10722912
340.487	1.08569809
340.695	1.06669719
340.903	1.0379617
341.11	1.01258613
341.318	0.99401846
341.526	0.96304388
341.734	0.97224901
341.942	0.98617818
342.15	0.99892494
342.358	0.95176897
342.565	0.96022704
342.773	0.98932972
342.981	0.98994936
343.189	0.96648371
343.397	0.91374589
343.604	0.93778593
343.812	0.90387018
344.02	0.91666369
344.228	0.91979339
344.435	0.95016739
344.643	0.93522008
344.851	0.95063532
345.058	0.9881655
345.266	1.02671106
345.474	1.05651586
345.681	1.02230035
345.889	1.03664858
346.097	1.03381807
346.304	1.00888721
346.512	0.97083574
346.72	1.00828015
346.927	0.9951511
347.135	0.97272584
347.342	0.9784419
347.55	1.00422915
347.758	1.0336173
347.965	1.01424246
348.173	1.0472471
348.38	1.0306945
348.588	1.0044918
348.795	1.00007975
349.003	0.99448071
349.21	0.99270019
349.418	0.99118004
349.625	0.99358402
349.833	0.96413128
350.04	1.00722799
350.247	1.01243729
350.455	1.02698728
350.662	1.0480609
350.87	1.07383521
351.077	1.03952706
351.284	1.06629325
351.492	1.05694227
351.699	1.06760207
351.906	1.03667368
352.114	1.07386202
352.321	1.05667368
352.528	1.03028776
352.736	1.03765319
352.943	1.01636095
353.15	1.02223596
353.358	1.02034906
353.565	1.02120444
353.772	1.01463573
353.979	1.01249997
354.187	1.03847553
354.394	1.04749783
354.601	1.06723552
354.808	1.05956374
355.015	1.0562834
355.223	1.07484664
355.43	1.10121683
355.637	1.09062414
355.844	1.10346166
356.051	1.10091578
356.258	1.10264818
356.465	1.07898211
356.673	1.09649744
356.88	1.12871957
357.087	1.1300879
357.294	1.14622472
357.501	1.15372157
357.708	1.17081218
357.915	1.15721479
358.122	1.15686707
358.329	1.16452726
358.536	1.15253966
358.743	1.14485668
358.95	1.11241349
359.157	1.11222885
359.364	1.12726239
359.571	1.12257098
359.778	1.08887897
359.985	1.09082096
360.192	1.09314619
360.399	1.08572031
360.606	1.08146707
360.812	1.08833488
361.019	1.09536609
361.226	1.07819546
361.433	1.07056302
361.64	1.06673658
361.847	1.06474561
362.054	1.10055076
362.26	1.11746691
362.467	1.12937
362.674	1.12755986
362.881	1.12322379
363.088	1.1083524
363.294	1.12525808
363.501	1.12748303
363.708	1.13392368
363.915	1.11685153
364.121	1.18959546
364.328	1.17377661
364.535	1.17338905
364.741	1.19399173
364.948	1.22645861
365.155	1.2225799
365.361	1.22808736
365.568	1.23949296
365.775	1.24618556
365.981	1.26570516
366.188	1.26105974
366.395	1.21551221
366.601	1.21646968
366.808	1.21669221
367.014	1.21725576
367.221	1.2023881
367.427	1.23814551
367.634	1.23004904
367.84	1.22324283
368.047	1.19549744
368.254	1.18883932
368.46	1.15707583
368.667	1.19906793
368.873	1.1806865
369.079	1.17462735
369.286	1.15073101
369.492	1.18950571
369.699	1.18391883
369.905	1.19696091
370.112	1.17429602
370.318	1.17866843
370.524	1.1861481
370.731	1.18710034
370.937	1.1802695
371.144	1.19705999
371.35	1.1976935
371.556	1.20862773
371.763	1.21639175
371.969	1.22382332
372.175	1.22577236
372.381	1.24727414
372.588	1.28345301
372.794	1.28792437
373	1.26416816
373.206	1.26249506
373.413	1.26846134
373.619	1.30077691
373.825	1.28120337
374.031	1.28616708
374.238	1.2878238
374.444	1.30801664
374.65	1.32751959
374.856	1.32356594
375.062	1.31214432
375.268	1.31417609
375.475	1.31208011
375.681	1.28684601
375.887	1.33220043
376.093	1.32548523
376.299	1.31462906
376.505	1.35258794
376.711	1.35535646
376.917	1.31902519
377.123	1.31989719
377.329	1.32050258
377.535	1.33210688
377.741	1.31669885
377.947	1.29699748
378.153	1.31470523
378.359	1.29789541
378.565	1.2883327
378.771	1.27156173
378.977	1.24752036
379.183	1.24890443
379.389	1.28094061
379.595	1.28363717
379.801	1.25929452
380.007	1.29107361
380.213	1.26102523
380.418	1.25174585
380.624	1.27672074
380.83	1.25845339
381.036	1.27922206
381.242	1.30529744
381.448	1.30366559
381.653	1.32197873
381.859	1.31744753
382.065	1.32001321
382.271	1.32697273
382.476	1.31338047
382.682	1.3428495
382.888	1.35525501
383.094	1.37372554
383.299	1.38558591
383.505	1.39286086
383.711	1.39112955
383.916	1.3982102
384.122	1.39145735
384.328	1.40231697
384.533	1.41381631
384.739	1.41914507
384.945	1.40387484
385.15	1.39612673
385.356	1.38996044
385.562	1.39813785
385.767	1.41195825
385.973	1.4081608
386.178	1.42883928
386.384	1.43464787
386.589	1.43393288
386.795	1.43578685
387	1.43408739
387.206	1.43418311
387.411	1.43934885
387.617	1.4598736
387.822	1.4625776
388.028	1.4791703
388.233	1.48488326
388.439	1.50267174
388.644	1.47645354
388.85	1.46737383
389.055	1.45133577
389.26	1.45562025
389.466	1.44203904
389.671	1.42678118
389.877	1.41866971
390.082	1.41000929
390.287	1.39107293
390.493	1.38019372
390.698	1.36418239
390.903	1.35590637
391.109	1.34376677
391.314	1.33866996
391.519	1.32782999
391.724	1.31536634
391.93	1.32016857
392.135	1.3155967
392.34	1.2845968
392.545	1.28479805
392.751	1.28077056
392.956	1.28446034
393.161	1.29580059
393.366	1.31980892
393.571	1.33538541
393.776	1.34657524
393.982	1.35393876
394.187	1.35519723
394.392	1.35051782
394.597	1.34425941
394.802	1.35942648
395.007	1.37342932
395.212	1.36983258
395.417	1.37788519
395.622	1.37774077
395.827	1.39607307
396.032	1.40018245
396.237	1.38270772
396.442	1.39908471
396.647	1.40517758
396.852	1.39675139
397.057	1.39445491
397.262	1.39663664
397.467	1.40527958
397.672	1.40345548
397.877	1.39601687
398.082	1.39847079
398.287	1.39277621
398.492	1.39656971
398.697	1.39717396
398.902	1.41589132
399.107	1.41717748
399.311	1.41319974
399.516	1.42671347
399.721	1.42836638
399.926	1.41991083
400.131	1.42628002
400.336	1.42911546
400.54	1.44309843
400.745	1.42858786
400.95	1.42595929
401.155	1.42050933
401.359	1.43121204
401.564	1.42867451
401.769	1.40171229
401.974	1.39789217
402.178	1.3828769
402.383	1.38075606
402.588	1.38806173
402.792	1.37472583
402.997	1.36380435
403.202	1.37350253
403.406	1.35596263
403.611	1.36185092
403.815	1.36509849
404.02	1.36383537
404.225	1.36259494
404.429	1.34089308
404.634	1.34334012
404.838	1.31497902
405.043	1.30770502
405.247	1.3112552
405.452	1.30541495
405.656	1.29828418
405.861	1.31964925
406.065	1.33180927
406.27	1.35428528
406.474	1.36171682
406.679	1.35322694
406.883	1.34844194
407.088	1.37072188
407.292	1.37029708
407.497	1.36960455
407.701	1.36720189
407.905	1.38051875
408.11	1.37589671
408.314	1.37916255
408.518	1.38965573
408.723	1.40171926
408.927	1.4086317
409.131	1.42300969
409.336	1.41414395
409.54	1.41949374
409.744	1.4328557
409.949	1.41629912
410.153	1.41256654
410.357	1.40854049
410.561	1.39114105
410.766	1.38956585
410.97	1.40715909
411.174	1.41809538
411.378	1.39353758
411.582	1.41981543
411.787	1.41089196
411.991	1.41695297
412.195	1.40793318
412.399	1.40913291
412.603	1.41047303
412.807	1.39110243
413.011	1.36223025
413.215	1.35805813
413.419	1.33895303
413.624	1.34660293
413.828	1.32463984
414.032	1.31760302
414.236	1.34144675
414.44	1.34323361
414.644	1.33795323
414.848	1.33052118
415.052	1.34749193
415.256	1.33027937
415.46	1.32215939
415.664	1.33707056
415.868	1.32259292
416.072	1.31732781
416.275	1.31671039
416.479	1.30675781
416.683	1.30311433
416.887	1.29542325
417.091	1.30394437
417.295	1.32225715
417.499	1.32869991
417.703	1.34388226
417.906	1.34869949
418.11	1.35841311
418.314	1.35940216
418.518	1.36367006
418.722	1.3550725
418.925	1.35555197
419.129	1.35472345
419.333	1.36168076
419.537	1.36714861
419.74	1.36795658
419.944	1.3635589
420.148	1.3737923
420.352	1.37834702
420.555	1.38287586
420.759	1.38657376
420.963	1.39377181
421.166	1.40669804
421.37	1.40751277
421.573	1.40861124
421.777	1.40220254
421.981	1.40164
422.184	1.39531882
422.388	1.39510483
422.591	1.4003493
422.795	1.39831053
422.999	1.39711367
423.202	1.40503793
423.406	1.40291008
423.609	1.39244802
423.813	1.39603042
424.016	1.40336539
424.22	1.40957957
424.423	1.39380979
424.627	1.39540725
424.83	1.40537923
425.033	1.41340867
425.237	1.41018075
425.44	1.41173995
425.644	1.4166761
425.847	1.42313644
426.05	1.43543803
426.254	1.44056588
426.457	1.44640052
426.66	1.46120489
426.864	1.45138459
427.067	1.44391026
427.27	1.4423982
427.474	1.44437473
427.677	1.45089118
427.88	1.43952838
428.084	1.43636566
428.287	1.43712091
428.49	1.43472108
428.693	1.44875767
428.896	1.45271456
429.1	1.44556709
429.303	1.45094489
429.506	1.45887743
429.709	1.44134996
429.912	1.4387705
430.116	1.43238745
430.319	1.43234262
430.522	1.42043821
430.725	1.42273779
430.928	1.41931958
431.131	1.42345325
431.334	1.43653785
431.537	1.45368458
431.74	1.45129016
431.943	1.44596584
432.146	1.45165724
432.349	1.46061681
432.552	1.45494011
432.755	1.4555676
432.958	1.44897241
433.161	1.45693355
433.364	1.45116354
433.567	1.43729428
433.77	1.44266092
433.973	1.45307067
434.176	1.4496158
434.379	1.44933564
434.582	1.43728495
434.785	1.44037208
434.988	1.45032506
435.19	1.43856418
435.393	1.43794344
435.596	1.43202678
435.799	1.43745324
436.002	1.43747871
436.205	1.44137582
436.407	1.45908363
436.61	1.4614403
436.813	1.46289318
437.016	1.46847107
437.218	1.4721504
437.421	1.4651153
437.624	1.46565693
437.827	1.4673388
438.029	1.46047543
438.232	1.46350473
438.435	1.475624
438.637	1.48076992
438.84	1.48269672
439.043	1.4830785
439.245	1.47726703
439.448	1.47818929
439.65	1.48784868
439.853	1.49677007
440.056	1.49650268
440.258	1.49378054
440.461	1.50626559
440.663	1.50962361
440.866	1.50758363
441.068	1.50591444
441.271	1.50102587
441.473	1.50778829
441.676	1.51409034
441.878	1.51122675
442.081	1.51783587
442.283	1.5228645
442.486	1.51914407
442.688	1.51714733
442.89	1.51645119
443.093	1.52195908
443.295	1.5255632
443.498	1.53000539
443.7	1.53935467
443.902	1.53964719
444.105	1.54363315
444.307	1.54263017
444.509	1.54658579
444.712	1.55394969
444.914	1.53985032
445.116	1.54438212
445.319	1.54772781
445.521	1.55270954
445.723	1.55052057
445.925	1.55421534
446.128	1.56746521
446.33	1.56710053
446.532	1.56938591
446.734	1.56502979
446.936	1.56926563
447.139	1.57145355
447.341	1.57489253
447.543	1.57941034
447.745	1.57593318
447.947	1.57673716
448.149	1.57801663
448.351	1.57829724
448.553	1.57258014
448.755	1.57877169
448.958	1.56367028
449.16	1.57274849
449.362	1.56099768
449.564	1.56446792
449.766	1.55985772
449.968	1.56101615
450.17	1.55483138
450.372	1.55381165
450.574	1.56249801
450.776	1.55425045
450.978	1.56343578
451.179	1.55918253
451.381	1.55980611
451.583	1.5650544
451.785	1.56581835
451.987	1.57449873
452.189	1.5706171
452.391	1.5768394
452.593	1.57566476
452.795	1.58176844
452.996	1.57817137
453.198	1.58656068
453.4	1.59513222
453.602	1.61699092
453.804	1.61978743
454.005	1.62776257
454.207	1.63446813
454.409	1.64411933
454.611	1.64772379
454.812	1.6445192
455.014	1.66030858
455.216	1.6743349
455.417	1.68113234
455.619	1.68794181
455.821	1.68994118
456.022	1.6920693
456.224	1.69068195
456.426	1.69733567
456.627	1.70652926
456.829	1.70707334
457.031	1.70962927
457.232	1.72096127
457.434	1.72456825
457.635	1.73168578
457.837	1.72427245
458.038	1.72883702
458.24	1.74284684
458.441	1.76048289
458.643	1.76333187
458.844	1.77159942
459.046	1.78005706
459.247	1.78257249
459.449	1.77951909
459.65	1.7910101
459.852	1.80758539
460.053	1.81211718
460.254	1.83579559
460.456	1.85218671
460.657	1.86212638
460.859	1.86974177
461.06	1.87536041
461.261	1.88745569
461.463	1.890632
461.664	1.8977017
461.865	1.90194346
462.066	1.92391878
462.268	1.93587571
462.469	1.94277142
462.67	1.93634894
462.872	1.9511299
463.073	1.95923252
463.274	1.97812088
463.475	1.98451927
463.676	2.0018078
463.878	2.00914823
464.079	2.01020923
464.28	2.02709172
464.481	2.02870306
464.682	2.04164049
464.883	2.06077394
465.085	2.07781459
465.286	2.10146503
465.487	2.12562421
465.688	2.14479098
465.889	2.16945927
466.09	2.18840697
466.291	2.20719468
466.492	2.22995063
466.693	2.24709896
466.894	2.27490266
467.095	2.30058797
467.296	2.33373306
467.497	2.35618462
467.698	2.38499784
467.899	2.42015799
468.1	2.44412639
468.301	2.46311794
468.502	2.48527168
468.703	2.52167956
468.903	2.55366343
469.104	2.58521664
469.305	2.602064
469.506	2.63445572
469.707	2.66188975
469.908	2.69365483
470.109	2.72989057
470.309	2.761965
470.51	2.78329592
470.711	2.81166531
470.912	2.84692035
471.112	2.88873826
471.313	2.92086842
471.514	2.953739
471.715	2.98869732
471.915	3.02550731
472.116	3.06470054
472.317	3.11145653
472.517	3.16325355
472.718	3.20923654
472.919	3.24840651
473.119	3.28439215
473.32	3.32782073
473.521	3.38727705
473.721	3.43232387
473.922	3.47519133
474.122	3.52531554
474.323	3.56662161
474.523	3.6158105
474.724	3.66648747
474.925	3.71806852
475.125	3.77109592
475.326	3.81827137
475.526	3.86561776
475.727	3.90530962
475.927	3.95558897
476.127	4.01893739
476.328	4.0505218
476.528	4.09706426
476.729	4.14556417
476.929	4.18660789
477.13	4.22834845
477.33	4.2771846
477.53	4.3217988
477.731	4.35716311
477.931	4.40332295
478.131	4.45912386
478.332	4.51387724
478.532	4.57039363
478.732	4.62055648
478.933	4.68087145
479.133	4.72803744
479.333	4.77849461
479.533	4.83649956
479.734	4.88506057
479.934	4.94116173
480.134	4.9896796
480.334	5.03158533
480.534	5.0777625
480.735	5.12231401
480.935	5.16539345
481.135	5.21200663
481.335	5.24792864
481.535	5.28647333
481.735	5.33030534
481.935	5.36108097
482.136	5.39609808
482.336	5.42732898
482.536	5.45970277
482.736	5.48777155
482.936	5.52415471
483.136	5.55560772
483.336	5.58835867
483.536	5.61862068
483.736	5.64431244
483.936	5.67549841
484.136	5.70267374
484.336	5.73204939
484.536	5.76064881
484.736	5.78723851
484.936	5.81210023
485.135	5.83041732
485.335	5.85144751
485.535	5.87781321
485.735	5.89939999
485.935	5.91243841
486.135	5.93613348
486.335	5.95269251
486.534	5.97063319
486.734	5.98608691
486.934	6.01054564
487.134	6.02976793
487.334	6.05237609
487.533	6.07197144
487.733	6.0850881
487.933	6.0996961
488.133	6.11281732
488.332	6.12805757
488.532	6.14148107
488.732	6.15313338
488.931	6.16810575
489.131	6.18189295
489.331	6.20299855
489.53	6.22080868
489.73	6.23407594
489.93	6.25043048
490.129	6.26883218
490.329	6.28775087
490.528	6.30702982
490.728	6.32821389
490.928	6.34412637
491.127	6.35453483
491.327	6.36637899
491.526	6.37079316
491.726	6.37994507
491.925	6.39827899
492.125	6.41110707
492.324	6.43209404
492.524	6.44066023
492.723	6.45268029
492.922	6.46227405
493.122	6.47465602
493.321	6.48822957
493.521	6.49677699
493.72	6.50947666
493.919	6.52203709
494.119	6.53091361
494.318	6.53947391
494.517	6.55050221
494.717	6.55944681
494.916	6.56490782
495.115	6.58026964
495.315	6.5893977
495.514	6.59533928
495.713	6.60533727
495.912	6.62241351
496.112	6.63467518
496.311	6.6479429
496.51	6.64992357
496.709	6.66447272
496.908	6.67770996
497.108	6.68931131
497.307	6.70579736
497.506	6.71102641
497.705	6.71857651
497.904	6.71630419
498.103	6.71830686
498.302	6.72455784
498.501	6.74181841
498.701	6.74043469
498.9	6.74571082
499.099	6.74591391
499.298	6.74637815
499.497	6.75389972
499.696	6.75654803
499.895	6.76881194
500.094	6.77261626
500.293	6.7814285
500.492	6.77640914
500.691	6.78401281
500.89	6.78931207
501.088	6.78527232
501.287	6.78712031
501.486	6.78115023
501.685	6.78788061
501.884	6.79359059
502.083	6.79304223
502.282	6.80147334
502.481	6.80416446
502.679	6.79547246
502.878	6.79945599
503.077	6.80250749
503.276	6.80493796
503.475	6.80305521
503.673	6.79882147
503.872	6.797044
504.071	6.79655141
504.27	6.79372346
504.468	6.77721117
504.667	6.78653278
504.866	6.7801805
505.064	6.77641672
505.263	6.76914575
505.462	6.76777284
505.66	6.76291556
505.859	6.76016648
506.058	6.74576846
506.256	6.75285671
506.455	6.74930144
506.653	6.74684628
506.852	6.73855564
507.05	6.73754477
507.249	6.72713595
507.448	6.72263209
507.646	6.71884222
507.845	6.7169264
508.043	6.72163589
508.242	6.71323379
508.44	6.70866606
508.638	6.71779531
508.837	6.70390281
509.035	6.70307487
509.234	6.69412382
509.432	6.69046786
509.631	6.68781487
509.829	6.68773387
510.027	6.67710219
510.226	6.68293422
510.424	6.67988137
510.622	6.67402935
510.821	6.66987385
511.019	6.66676965
511.217	6.66257173
511.415	6.65602783
511.614	6.66090515
511.812	6.65168912
512.01	6.64335911
512.208	6.62685888
512.407	6.61780029
512.605	6.61332316
512.803	6.59735469
513.001	6.60431995
513.199	6.59409666
513.398	6.59512888
513.596	6.59543378
513.794	6.59009425
513.992	6.58196911
514.19	6.58191778
514.388	6.57001686
514.586	6.5548589
514.784	6.54434211
514.982	6.53330426
515.18	6.52937391
515.378	6.52156217
515.576	6.52119966
515.774	6.51002421
515.972	6.50588359
516.17	6.50213879
516.368	6.49381729
516.566	6.49131183
516.764	6.48547821
516.962	6.47326681
517.16	6.45976339
517.358	6.45624151
517.556	6.44879756
517.754	6.43567359
517.952	6.42607488
518.149	6.41964719
518.347	6.41111316
518.545	6.40984329
518.743	6.41571308
518.941	6.41129813
519.138	6.40893401
519.336	6.40712062
519.534	6.4027862
519.732	6.39737426
519.929	6.38905261
520.127	6.3898955
520.325	6.38887809
520.523	6.39173842
520.72	6.39126718
520.918	6.38031658
521.116	6.39344153
521.313	6.39352872
521.511	6.38847656
521.709	6.39057609
521.906	6.38853211
522.104	6.39544925
522.301	6.39884992
522.499	6.39392388
522.696	6.40401955
522.894	6.39874537
523.092	6.40486605
523.289	6.40789127
523.487	6.40210964
523.684	6.40200711
523.882	6.40191962
524.079	6.40048383
524.276	6.39724464
524.474	6.39444203
524.671	6.39535125
524.869	6.38310848
525.066	6.38586813
525.264	6.3805745
525.461	6.37470687
525.658	6.37902496
525.856	6.37387621
526.053	6.37574962
526.25	6.37605388
526.448	6.37497876
526.645	6.38127903
526.842	6.37359739
527.039	6.37242534
527.237	6.36983263
527.434	6.36833184
527.631	6.37274761
527.828	6.3762338
528.026	6.38292202
528.223	6.38343635
528.42	6.39264225
528.617	6.39733099
528.814	6.3978863
529.012	6.40543105
529.209	6.41107103
529.406	6.4070083
529.603	6.417234
529.8	6.42163182
529.997	6.42794587
530.194	6.43458835
530.391	6.42902788
530.588	6.43401324
530.785	6.43591985
530.982	6.44015014
531.179	6.45063199
531.376	6.45783878
531.573	6.45812992
531.77	6.46415698
531.967	6.4676429
532.164	6.46511229
532.361	6.47150485
532.558	6.46514468
532.755	6.46651821
532.952	6.46898062
533.149	6.4691847
533.346	6.46759038
533.543	6.47367281
533.739	6.47002016
533.936	6.46937103
534.133	6.46554066
534.33	6.46625167
534.527	6.47586729
534.723	6.47294869
534.92	6.47605959
535.117	6.47914821
535.314	6.47311833
535.51	6.46930413
535.707	6.47484085
535.904	6.47097686
536.1	6.46776939
536.297	6.47031572
536.494	6.47073096
536.69	6.47614789
536.887	6.47582236
537.084	6.48415617
537.28	6.49046726
537.477	6.48853249
537.674	6.49398255
537.87	6.49809821
538.067	6.49839123
538.263	6.50488896
538.46	6.50687124
538.656	6.51458513
538.853	6.51337786
539.049	6.5133776
539.246	6.50990413
539.442	6.51003787
539.639	6.51168323
539.835	6.51276547
540.032	6.51838587
540.228	6.52254382
540.424	6.52973853
540.621	6.53557716
540.817	6.53835407
541.014	6.5473407
541.21	6.55267926
541.406	6.55886282
541.603	6.57057274
541.799	6.58072154
541.995	6.5912219
542.191	6.60063914
542.388	6.61020252
542.584	6.61931492
542.78	6.62136907
542.976	6.64411732
543.173	6.65581035
543.369	6.67632446
543.565	6.69391155
543.761	6.70544387
543.957	6.71548419
544.154	6.72928589
544.35	6.73818388
544.546	6.74227216
544.742	6.75527102
544.938	6.76277016
545.134	6.76523689
545.33	6.76690077
545.526	6.77596168
545.722	6.78166366
545.919	6.78330351
546.115	6.78383818
546.311	6.78561883
546.507	6.78810754
546.703	6.79413402
546.899	6.80163031
547.095	6.78972548
547.29	6.78270038
547.486	6.77646833
547.682	6.76674226
547.878	6.77199186
548.074	6.76968586
548.27	6.75775111
548.466	6.75366537
548.662	6.75507805
548.858	6.74213238
549.053	6.73936938
549.249	6.73319055
549.445	6.73276779
549.641	6.72548435
549.837	6.72128979
550.032	6.71083157
550.228	6.70127881
550.424	6.69767545
550.62	6.68801193
550.815	6.6768721
551.011	6.65490753
551.207	6.64892403
551.402	6.64482986
551.598	6.62658943
551.794	6.61854161
551.989	6.59513963
552.185	6.59270753
552.381	6.58060014
552.576	6.57312282
552.772	6.5562429
552.967	6.5497813
553.163	6.53648804
553.359	6.5282127
553.554	6.51060076
553.75	6.49157476
553.945	6.4801015
554.141	6.47260711
554.336	6.46730835
554.532	6.44621273
554.727	6.44196052
554.922	6.41976861
555.118	6.42646005
555.313	6.41455917
555.509	6.41692988
555.704	6.41813717
555.899	6.41450361
556.095	6.42077324
556.29	6.40540493
556.486	6.39953695
556.681	6.39283682
556.876	6.38617934
557.071	6.37801559
557.267	6.37238712
557.462	6.37806991
557.657	6.38116631
557.853	6.37259033
558.048	6.37389164
558.243	6.38213077
558.438	6.37591801
558.633	6.37918799
558.829	6.37490004
559.024	6.38902195
559.219	6.39031581
559.414	6.41188291
559.609	6.40099778
559.804	6.40541733
559.999	6.4118744
560.194	6.41077217
560.39	6.42906237
560.585	6.44948131
560.78	6.45858702
560.975	6.47275156
561.17	6.48200258
561.365	6.49398585
561.56	6.50986407
561.755	6.5236858
561.95	6.55719804
562.145	6.57182793
562.34	6.5917398
562.535	6.61931794
562.729	6.65637628
562.924	6.68423053
563.119	6.70693963
563.314	6.7288465
563.509	6.74213296
563.704	6.77710628
563.899	6.80753695
564.093	6.83826086
564.288	6.86573336
564.483	6.89482331
564.678	6.92053664
564.873	6.95862625
565.067	6.9953673
565.262	7.03223242
565.457	7.07763493
565.652	7.11372873
565.846	7.16225966
566.041	7.20385354
566.236	7.24534352
566.43	7.27954961
566.625	7.32690076
566.82	7.37304388
567.014	7.41983222
567.209	7.46932759
567.404	7.51494364
567.598	7.57098941
567.793	7.62808814
567.987	7.6759093
568.182	7.7286266
568.376	7.79801553
568.571	7.85485597
568.765	7.92245798
568.96	7.98343562
569.154	8.05372046
569.349	8.13519681
569.543	8.19567145
569.738	8.25888954
569.932	8.33560533
570.127	8.40531904
570.321	8.4770067
570.515	8.55357233
570.71	8.6335456
570.904	8.71944969
571.098	8.81280944
571.293	8.89613657
571.487	8.98098171
571.681	9.06330729
571.876	9.15160103
572.07	9.237768
572.264	9.33120976
572.458	9.42432123
572.653	9.51637422
572.847	9.61099379
573.041	9.71033533
573.235	9.80062847
573.43	9.89165911
573.624	9.98745792
573.818	10.09137208
574.012	10.17741616
574.206	10.27960606
574.4	10.39106289
574.594	10.49799203
574.788	10.60348981
574.983	10.70781383
575.177	10.80033452
575.371	10.91845406
575.565	11.03647671
575.759	11.14091718
575.953	11.2490572
576.147	11.37766329
576.341	11.488278
576.535	11.60268448
576.729	11.72196309
576.923	11.84919696
577.117	11.97685789
577.31	12.09924491
577.504	12.22489773
577.698	12.37608315
577.892	12.51379308
578.086	12.65169607
578.28	12.79354243
578.474	12.94228708
578.668	13.09555236
578.861	13.24638974
579.055	13.38183049
579.249	13.53820312
579.443	13.6874011
579.636	13.85157301
579.83	14.029119
580.024	14.19560996
580.218	14.35826941
580.411	14.52973256
580.605	14.69827015
580.799	14.879926
580.992	15.03584935
581.186	15.20561655
581.38	15.38744649
581.573	15.5563142
581.767	15.72866654
581.961	15.90705521
582.154	16.0784589
582.348	16.26973524
582.541	16.43376803
582.735	16.60953673
582.928	16.78988257
583.122	16.96083347
583.315	17.14271967
583.509	17.31192458
583.702	17.48743231
583.896	17.65944496
584.089	17.83325241
584.283	17.99401445
584.476	18.16547289
584.67	18.33896286
584.863	18.49856793
585.056	18.66936149
585.25	18.82297363
585.443	19.00066769
585.636	19.1729985
585.83	19.33220414
586.023	19.47852873
586.216	19.65114875
586.41	19.79103951
586.603	19.93863604
586.796	20.0853008
586.989	20.23255204
587.183	20.41139325
587.376	20.55027858
587.569	20.70145057
587.762	20.84213886
587.955	20.98247191
588.149	21.12669464
588.342	21.28207582
588.535	21.43010094
588.728	21.5563921
588.921	21.70941653
589.114	21.85997527
589.307	22.01483728
589.5	22.14173025
589.693	22.27697291
589.886	22.42365367
590.08	22.56087274
590.273	22.67610388
590.466	22.8138964
590.659	22.95535559
590.852	23.08750692
591.044	23.21355959
591.237	23.32514549
591.43	23.43262969
591.623	23.54164675
591.816	23.64002968
592.009	23.76108361
592.202	23.8613242
592.395	23.98147913
592.588	24.08231631
592.781	24.2040843
592.973	24.30843946
593.166	24.41780782
593.359	24.51956266
593.552	24.63278505
593.745	24.73869072
593.937	24.82816388
594.13	24.93916808
594.323	25.04901891
594.515	25.13879222
594.708	25.21764075
594.901	25.31772915
595.094	25.42468595
595.286	25.51053354
595.479	25.61777871
595.672	25.72336743
595.864	25.82381716
596.057	25.90432391
596.249	25.99814341
596.442	26.07476207
596.635	26.16995952
596.827	26.24294039
597.02	26.31498725
597.212	26.38460829
597.405	26.47002597
597.597	26.53988856
597.79	26.62007103
597.982	26.70094092
598.175	26.75511953
598.367	26.81539329
598.559	26.90130155
598.752	26.98087994
598.944	27.04422835
599.137	27.09600373
599.329	27.17519932
599.521	27.22140352
599.714	27.28353899
599.906	27.36136578
600.098	27.41019702
600.291	27.47153332
600.483	27.53646472
600.675	27.56894822
600.868	27.60847884
601.06	27.66281116
601.252	27.71503339
601.444	27.75303565
601.637	27.81116932
601.829	27.85981346
602.021	27.90875753
602.213	27.96238363
602.405	28.01752602
602.597	28.0506738
602.789	28.10117353
602.982	28.15150846
603.174	28.2101028
603.366	28.25682441
603.558	28.33145357
603.75	28.34821239
603.942	28.37657418
604.134	28.4372403
604.326	28.48545088
604.518	28.51357768
604.71	28.56820142
604.902	28.63602736
605.094	28.68525025
605.286	28.73510938
605.478	28.79254213
605.67	28.84738802
605.862	28.89024672
606.054	28.93931586
606.246	29.01055081
606.437	29.0970746
606.629	29.1670885
606.821	29.23480391
607.013	29.29656209
607.205	29.35544761
607.397	29.40473763
607.588	29.46205053
607.78	29.57267132
607.972	29.65093777
608.164	29.73220487
608.355	29.81170143
608.547	29.9068798
608.739	29.98520397
608.93	30.07110123
609.122	30.14908255
609.314	30.22170705
609.505	30.31010871
609.697	30.38500892
609.889	30.46099657
610.08	30.55928541
610.272	30.62980822
610.463	30.6913737
610.655	30.75146334
610.847	30.8368138
611.038	30.91088959
611.23	30.96873653
611.421	31.04581971
611.613	31.09711645
611.804	31.13657273
611.996	31.18470966
612.187	31.22223339
612.379	31.27481132
612.57	31.30873866
612.761	31.35441359
612.953	31.37875418
613.144	31.41539432
613.336	31.46635069
613.527	31.4866282
613.718	31.49737382
613.91	31.51752792
614.101	31.52022921
614.292	31.52133547
614.483	31.52320396
614.675	31.54633623
614.866	31.50896955
615.057	31.48086796
615.248	31.47068789
615.44	31.4730597
615.631	31.45893533
615.822	31.44246849
616.013	31.40912352
616.204	31.38913532
616.396	31.35461091
616.587	31.3309098
616.778	31.29046068
616.969	31.25235249
617.16	31.22140309
617.351	31.16056024
617.542	31.0988489
617.733	31.06254997
617.924	31.02714993
618.115	30.97471107
618.306	30.91399706
618.497	30.85369539
618.688	30.78191283
618.879	30.75647222
619.07	30.71957213
619.261	30.67614243
619.452	30.6261622
619.643	30.5958471
619.834	30.58082636
620.025	30.57405526
620.216	30.57177553
620.407	30.56325725
620.597	30.52079385
620.788	30.50843989
620.979	30.51868319
621.17	30.50220359
621.361	30.50515654
621.551	30.51957636
621.742	30.53753765
621.933	30.52619643
622.124	30.53300513
622.314	30.55932026
622.505	30.56441707
622.696	30.58430625
622.886	30.59897674
623.077	30.63614823
623.268	30.65348239
623.458	30.67001648
623.649	30.67187034
623.84	30.68685181
624.03	30.68329007
624.221	30.68589649
624.411	30.65915098
624.602	30.69101864
624.792	30.71290199
624.983	30.70677703
625.173	30.70511952
625.364	30.74268464
625.554	30.7436525
625.745	30.72375665
625.935	30.74751112
626.126	30.76461212
626.316	30.76183006
626.507	30.76552252
626.697	30.77362911
626.887	30.7846005
627.078	30.78430217
627.268	30.80101886
627.458	30.80187693
627.649	30.81921692
627.839	30.82413721
628.029	30.85504261
628.22	30.86379568
628.41	30.8949772
628.6	30.9014435
628.79	30.92218557
628.981	30.93126665
629.171	30.96407802
629.361	30.97144221
629.551	30.99891048
629.741	31.00376426
629.932	31.00289733
630.122	30.99882521
630.312	31.02068101
630.502	31.0476724
630.692	31.05062539
630.882	31.07518521
631.072	31.06999323
631.262	31.07758444
631.452	31.07969334
631.642	31.10015323
631.832	31.09046431
632.022	31.10882441
632.212	31.11730719
632.402	31.11930879
632.592	31.13240849
632.782	31.12648232
632.972	31.16622661
633.162	31.16883992
633.352	31.14903095
633.542	31.14596928
633.732	31.17405703
633.922	31.19735887
634.111	31.22691779
634.301	31.24142218
634.491	31.26446103
634.681	31.29721501
634.871	31.29487599
635.06	31.31978824
635.25	31.34552688
635.44	31.38884887
635.63	31.41375705
635.819	31.43567502
636.009	31.44360285
636.199	31.48114554
636.388	31.48924548
636.578	31.51301297
636.768	31.54150285
636.957	31.52268857
637.147	31.54356972
637.337	31.57838122
637.526	31.62267391
637.716	31.6455215
637.905	31.66766796
638.095	31.67759806
638.284	31.69981576
638.474	31.73456905
638.663	31.76170628
638.853	31.79405623
639.042	31.80202783
639.232	31.81069728
639.421	31.81000574
639.611	31.81843949
639.8	31.8339498
639.99	31.81933479
640.179	31.81427381
640.368	31.86801102
640.558	31.87766401
640.747	31.88377246
640.936	31.9336298
641.126	31.96014133
641.315	31.97284901
641.504	32.00582611
641.694	32.043438
641.883	32.06643353
642.072	32.11307508
642.261	32.13726398
642.451	32.15327409
642.64	32.13874837
642.829	32.16679027
643.018	32.20588228
643.207	32.23162744
643.397	32.26490158
643.586	32.31091343
643.775	32.35101946
643.964	32.39435313
644.153	32.41568753
644.342	32.43064739
644.531	32.46492197
644.72	32.50730881
644.909	32.53169311
645.098	32.52553323
645.287	32.56405289
645.476	32.55513964
645.665	32.54527416
645.854	32.60451272
646.043	32.61260139
646.232	32.63914088
646.421	32.64426912
646.61	32.70557818
646.799	32.70239373
646.988	32.72073634
647.177	32.74316391
647.365	32.74142006
647.554	32.75003142
647.743	32.76638242
647.932	32.80019415
648.121	32.82569542
648.309	32.85568019
648.498	32.86487102
648.687	32.89798239
648.876	32.92332237
649.064	32.97400076
649.253	33.00211979
649.442	33.02239373
649.63	33.06614973
649.819	33.06778642
650.008	33.08673659
650.196	33.07677729
650.385	33.12437795
650.574	33.17567302
650.762	33.21825949
650.951	33.24234339
651.139	33.29320828
651.328	33.32581397
651.516	33.34945395
651.705	33.38014442
651.893	33.4163752
652.082	33.43860784
652.27	33.47396779
652.459	33.5048953
652.647	33.5188993
652.836	33.51337243
653.024	33.53257846
653.213	33.53293895
653.401	33.56020085
653.589	33.58045212
653.778	33.59283628
653.966	33.62188514
654.154	33.68574845
654.343	33.67735498
654.531	33.64759278
654.719	33.66458354
654.908	33.68762567
655.096	33.67072228
655.284	33.69753916
655.472	33.73140538
655.661	33.74775029
655.849	33.75927003
656.037	33.78678233
656.225	33.79647441
656.413	33.80665311
656.601	33.80511653
656.79	33.85117054
656.978	33.86675013
657.166	33.89422415
657.354	33.89942481
657.542	33.91762355
657.73	33.93848924
657.918	33.95006553
658.106	33.94239908
658.294	33.95569956
658.482	33.94818095
658.67	33.95265156
658.858	34.00236811
659.046	34.02146924
659.234	34.05391486
659.422	34.0466974
659.61	34.05299181
659.798	34.04182263
659.986	34.04078929
660.173	34.04887852
660.361	34.07505787
660.549	34.10924646
660.737	34.10353033
660.925	34.13672149
661.113	34.13508738
661.3	34.18306316
661.488	34.20722698
661.676	34.2127134
661.864	34.21752093
662.051	34.2235912
662.239	34.25871371
662.427	34.29207078
662.614	34.29485858
662.802	34.28278568
662.99	34.31494958
663.177	34.31395453
663.365	34.34961991
663.553	34.38505042
663.74	34.44137031
663.928	34.4556754
664.115	34.48831425
664.303	34.52225391
664.49	34.53551277
664.678	34.56651924
664.866	34.5783772
665.053	34.61579717
665.24	34.62219256
665.428	34.6251118
665.615	34.64207465
665.803	34.65316709
665.99	34.70836173
666.178	34.70960711
666.365	34.76013971
666.552	34.76335602
666.74	34.75996479
666.927	34.76388285
667.114	34.78289396
667.302	34.79356961
667.489	34.79787555
667.676	34.7997012
667.864	34.83143637
668.051	34.8267537
668.238	34.83981275
668.425	34.86574157
668.613	34.8801538
668.8	34.88620081
668.987	34.87433067
669.174	34.87980105
669.361	34.8905297
669.548	34.89878942
669.736	34.93249073
669.923	34.92982074
670.11	34.93431853
670.297	34.91161872
670.484	34.94265763
670.671	34.97597594
670.858	34.97502104
671.045	34.99278545
671.232	34.99897662
671.419	35.01456169
671.606	34.99782877
671.793	34.99251109
671.98	35.00446885
672.167	35.00511509
672.354	35.03002292
672.541	35.04650532
672.728	35.04365607
672.915	35.06174544
673.101	35.05464764
673.288	35.09139811
673.475	35.08711004
673.662	35.0992694
673.849	35.11208
674.035	35.13558095
674.222	35.15589911
674.409	35.19534701
674.596	35.1796786
674.783	35.22027499
674.969	35.21412303
675.156	35.22570704
675.343	35.19836533
675.529	35.21003966
675.716	35.24426427
675.903	35.24968184
676.089	35.23302114
676.276	35.23231976
676.462	35.2286667
676.649	35.23920052
676.836	35.25032948
677.022	35.2563024
677.209	35.25365215
677.395	35.27563782
677.582	35.28285263
677.768	35.26557909
677.955	35.26132976
678.141	35.29182321
678.328	35.28427631
678.514	35.31060069
678.701	35.30694333
678.887	35.34261764
679.073	35.34418803
679.26	35.3557828
679.446	35.38397061
679.632	35.38384161
679.819	35.39260007
680.005	35.38710735
680.191	35.36847807
680.378	35.39494859
680.564	35.41253766
680.75	35.41738277
680.936	35.42523592
681.123	35.40698959
681.309	35.43306109
681.495	35.43063326
681.681	35.45660114
681.867	35.45390236
682.054	35.46308119
682.24	35.45117815
682.426	35.4498981
682.612	35.44276168
682.798	35.44080842
682.984	35.38374942
683.17	35.38085014
683.356	35.36206962
683.542	35.36870485
683.728	35.37269852
683.914	35.39186288
684.1	35.42326626
684.286	35.40409394
684.472	35.41217809
684.658	35.42908046
684.844	35.43678537
685.03	35.46003585
685.216	35.42710554
685.402	35.41040519
685.588	35.41118909
685.774	35.427497
685.96	35.40105907
686.145	35.41972938
686.331	35.41237104
686.517	35.43390717
686.703	35.41916961
686.889	35.45976881
687.074	35.48149556
687.26	35.47818896
687.446	35.46257857
687.631	35.46237546
687.817	35.46712895
688.003	35.4692781
688.189	35.46948634
688.374	35.45108579
688.56	35.47450849
688.745	35.47436259
688.931	35.48257812
689.117	35.52510057
689.302	35.54181949
689.488	35.54540064
689.673	35.53983489
689.859	35.52966701
690.044	35.54846084
690.23	35.55061243
690.415	35.54325364
690.601	35.53013627
690.786	35.53855183
690.972	35.58298301
691.157	35.61634373
691.343	35.63861879
691.528	35.62453044
691.713	35.67885355
691.899	35.63405582
692.084	35.63498157
692.269	35.64304919
692.455	35.61503142
692.64	35.61773212
692.825	35.59520128
693.011	35.59583251
693.196	35.58982086
693.381	35.59239721
693.566	35.60776596
693.752	35.62011131
693.937	35.61876599
694.122	35.6100357
694.307	35.59783719
694.492	35.57487764
694.678	35.60875901
694.863	35.59225448
695.048	35.60347616
695.233	35.59579543
695.418	35.65453228
695.603	35.61809937
695.788	35.66363972
695.973	35.67122497
696.158	35.69133286
696.343	35.69240949
696.528	35.71153399
696.713	35.72966715
696.898	35.69844448
697.083	35.71692952
697.268	35.72780263
697.453	35.72620673
697.638	35.74819854
697.823	35.72524593
698.008	35.74613496
698.192	35.75891808
698.377	35.80020268
698.562	35.80091522
698.747	35.78719718
698.932	35.76599857
699.117	35.77925407
699.301	35.75888475
699.486	35.74115231
699.671	35.73002686
699.856	35.7508772
700.04	35.74496853
700.225	35.77814195
700.41	35.78230736
700.594	35.79115873
700.779	35.82580036
700.964	35.82430031
701.148	35.83091126
701.333	35.87354466
701.517	35.9023712
701.702	35.92148414
701.887	35.95700453
702.071	35.97491867
702.256	35.97461558
702.44	36.01740807
702.625	36.041808
702.809	36.07408214
702.994	36.08499308
703.178	36.10529053
703.362	36.12433198
703.547	36.11119977
703.731	36.13029437
703.916	36.13652897
704.1	36.14339244
704.284	36.16523408
704.469	36.16174863
704.653	36.16005701
704.837	36.20260966
705.022	36.2407976
705.206	36.20894261
705.39	36.21855279
705.575	36.25148863
705.759	36.23506146
705.943	36.24891098
706.127	36.27902313
706.311	36.25813964
706.496	36.27949633
706.68	36.30137261
706.864	36.3381956
707.048	36.31219067
707.232	36.37239629
707.416	36.44946069
707.6	36.45995361
707.785	36.50124796
707.969	36.50643579
708.153	36.51699709
708.337	36.55380894
708.521	36.59551316
708.705	36.60236945
708.889	36.60289452
709.073	36.61479827
709.257	36.63294009
709.441	36.66907151
709.624	36.66836033
709.808	36.67806043
709.992	36.71745154
710.176	36.74732402
710.36	36.74078686
710.544	36.74342734
710.728	36.74652959
710.912	36.75557041
711.095	36.7249499
711.279	36.69926999
711.463	36.69044561
711.647	36.70086294
711.83	36.70222329
712.014	36.68531504
712.198	36.70785588
712.382	36.71449259
712.565	36.69830591
712.749	36.66486543
712.933	36.66268465
713.116	36.65798996
713.3	36.63631905
713.483	36.64246597
713.667	36.60567598
713.851	36.54011738
714.034	36.48821137
714.218	36.48117466
714.401	36.46653201
714.585	36.43288225
714.768	36.43320426
714.952	36.44378722
715.135	36.43379584
715.319	36.40841372
715.502	36.38897628
715.686	36.34264443
715.869	36.3436722
716.052	36.2918685
716.236	36.23346818
716.419	36.19179694
716.602	36.23558347
716.786	36.22464456
716.969	36.15249535
717.152	36.14416708
717.336	36.14792585
717.519	36.16693464
717.702	36.20462384
717.885	36.186102
718.069	36.22149236
718.252	36.19205398
718.435	36.17934046
718.618	36.17545872
718.801	36.14572279
718.985	36.14444887
719.168	36.1451421
719.351	36.12270245
719.534	36.16408693
719.717	36.17800848
719.9	36.20031369
720.083	36.20108113
720.266	36.17762146
720.449	36.09572
720.632	36.07075502
720.815	36.11046828
720.998	36.09448865
721.181	36.08936901
721.364	36.08924618
721.547	36.04441391
721.73	36.07214343
721.913	36.00951265
722.096	36.04710101
722.279	36.06050832
722.461	36.08193318
722.644	36.09037535
722.827	36.12421335
723.01	36.08516913
723.193	36.113123
723.376	36.10403686
723.558	36.10200517
723.741	36.07377327
723.924	36.08844032
724.107	36.1926408
724.289	36.27041612
724.472	36.28330929
724.655	36.29627322
724.837	36.2915902
725.02	36.30401061
725.203	36.29703252
725.385	36.30767664
725.568	36.32637712
725.75	36.38119761
725.933	36.37320697
726.115	36.3773782
726.298	36.38275038
726.481	36.39752112
726.663	36.36009519
726.845	36.39535754
727.028	36.37136747
727.21	36.33646549
727.393	36.30304285
727.575	36.31128727
727.758	36.32785106
727.94	36.27278801
728.122	36.19389465
728.305	36.20345213
728.487	36.18385363
728.67	36.19843401
728.852	36.13225352
729.034	36.16576049
729.216	36.15232326
729.399	36.12499874
729.581	36.09121354
729.763	36.11371216
729.945	36.18871382
730.128	36.2156661
730.31	36.22108035
730.492	36.23280969
730.674	36.27758049
730.856	36.25732678
731.039	36.28231331
731.221	36.28344533
731.403	36.30707254
731.585	36.29933625
731.767	36.32174933
731.949	36.36864331
732.131	36.40380478
732.313	36.37771329
732.495	36.38467165
732.677	36.4880621
732.859	36.46577051
733.041	36.51699017
733.223	36.55953891
733.405	36.57039666
733.587	36.61133204
733.769	36.54231688
733.951	36.51476134
734.132	36.51447562
734.314	36.52657624
734.496	36.5068929
734.678	36.54848066
734.86	36.58402519
735.042	36.63023629
735.223	36.6398676
735.405	36.64914473
735.587	36.64614425
735.769	36.6340008
735.95	36.63614027
736.132	36.67177434
736.314	36.69181921
736.495	36.63864824
736.677	36.70593679
736.859	36.70946133
737.04	36.72029074
737.222	36.72516497
737.403	36.66833853
737.585	36.6767944
737.767	36.72071592
737.948	36.72518587
738.13	36.72260112
738.311	36.77993534
738.493	36.83118109
738.674	36.86568683
738.856	36.84993746
739.037	36.81901094
739.219	36.87808599
739.4	36.93916284
739.581	36.99192626
739.763	36.94074111
739.944	36.99401494
740.125	36.97958126
740.307	36.96016156
740.488	36.90658477
740.669	36.93144682
740.851	36.94387304
741.032	36.98171479
741.213	36.92745318
741.395	36.92617468
741.576	36.88369082
741.757	36.949296
741.938	36.93976652
742.119	36.95185119
742.301	36.94083074
742.482	36.84343103
742.663	36.83493855
742.844	36.94029558
743.025	36.93350462
743.206	36.8806929
743.387	36.87190273
743.568	36.95465715
743.749	36.9493122
743.93	36.9620055
744.111	37.02467732
744.292	36.99341031
744.473	36.97913463
744.654	36.94070507
744.835	36.92473281
745.016	37.06375495
745.197	37.07286862
745.378	37.0677637
745.559	36.94399992
745.74	37.03051248
745.921	36.96128257
746.102	36.88815479
746.282	36.95888193
746.463	36.97961517
746.644	36.93897899
746.825	36.94562215
747.006	36.94477286
747.186	36.90656837
747.367	36.94532209
747.548	36.89729187
747.728	36.88214764
747.909	36.89246105
748.09	36.95304042
748.27	37.02549079
748.451	37.05340753
748.632	37.10065906
748.812	37.08427466
748.993	37.08077632
749.173	37.12440264
749.354	37.18783084
749.535	37.15984656
749.715	37.17241214
749.896	37.19077296
750.076	37.21020918
750.257	37.19365063
750.437	37.15957632
750.618	37.14196407
750.798	37.16083698
750.978	37.19116517
751.159	37.13646786
751.339	37.24956032
751.52	37.28594483
751.7	37.25537662
751.88	37.2071667
752.061	37.15869431
752.241	37.17189231
752.421	37.14086496
752.601	37.15375511
752.782	37.17410176
752.962	37.0559414
753.142	37.09420269
753.322	37.10031941
753.503	37.14664962
753.683	37.23126322
753.863	37.29405684
754.043	37.2944258
754.223	37.31778076
754.403	37.32253147
754.583	37.39050615
754.764	37.45061062
754.944	37.41932876
755.124	37.39889741
755.304	37.3511449
755.484	37.44989292
755.664	37.506399
755.844	37.5060003
756.024	37.4674797
756.204	37.3758189
756.384	37.39398976
756.564	37.38493995
756.743	37.55324559
756.923	37.52371731
757.103	37.45832929
757.283	37.40697081
757.463	37.36312711
757.643	37.31052345
757.823	37.28178753
758.002	37.30036021
758.182	37.22374964
758.362	37.13744556
758.542	37.02469809
758.721	37.10666088
758.901	37.01270285
759.081	37.04249902
759.261	36.93271182
759.44	36.93165585
759.62	36.89388063
759.8	36.87693762
759.979	36.91262801
760.159	36.87988083
760.338	36.85843089
760.518	36.78660252
760.698	36.78232445
760.877	36.76262291
761.057	36.71777763
761.236	36.61464169
761.416	36.54006049
761.595	36.56423531
761.775	36.53039915
761.954	36.55243378
762.133	36.61896105
762.313	36.66589923
762.492	36.6157781
762.672	36.59431024
762.851	36.54054198
763.03	36.55508994
763.21	36.5499253
763.389	36.54817508
763.568	36.61149265
763.748	36.63561879
763.927	36.56465573
764.106	36.58430034
764.286	36.51649541
764.465	36.51132478
764.644	36.5644709
764.823	36.59776209
765.002	36.6911579
765.182	36.70391266
765.361	36.73376554
765.54	36.74531954
765.719	36.7365673
765.898	36.71176281
766.077	36.71337785
766.256	36.73206585
766.435	36.81875434
766.614	36.97497007
766.793	37.0136745
766.972	37.04229625
767.151	37.00049895
767.33	36.99194931
767.509	37.03927532
767.688	37.0510879
767.867	37.11015364
768.046	37.2127664
768.225	37.20577105
768.404	37.25301916
768.583	37.29475323
768.762	37.3233973
768.94	37.47213832
769.119	37.45796784
769.298	37.40543399
769.477	37.52550602
769.656	37.62296935
769.834	37.65128787
770.013	37.7104245
770.192	37.78302463
770.37	37.72130728
770.549	37.82828474
770.728	37.77437528
770.906	37.87415678
771.085	37.93181142
771.264	37.90450115
771.442	38.05584915
771.621	38.02370882
771.799	38.05904305
771.978	38.27652725
772.157	38.19935814
772.335	38.32940492
772.514	38.36513878
772.692	38.30080352
772.871	38.41039698
773.049	38.55334515
773.228	38.51641743
773.406	38.38450622
773.584	38.55087362
773.763	38.50182758
773.941	38.57633498
774.119	38.5245256
774.298	38.53438254
774.476	38.73145104
774.655	38.77543177
774.833	38.6623285
775.011	38.62476592
775.189	38.55093537
775.368	38.583995
775.546	38.65742152
775.724	38.46445258
775.902	38.4315175
776.08	38.3057546
776.259	38.36194138
776.437	38.2305502
776.615	38.31286454
776.793	38.23835772
776.971	38.15040522
777.149	38.13112509
777.327	37.8722237
777.505	38.00319025
777.683	37.86030055
777.861	37.79416397
778.04	37.71864512
778.218	37.64153073
778.395	37.69559416
778.573	37.7107478
778.751	37.84635618
778.929	37.96471686
779.107	37.8695299
779.285	37.82663123
779.463	37.8352844
779.641	37.92909488
779.819	37.84412408
779.997	37.57006098
780.174	37.77876297
780.352	37.7002604
780.53	37.86978349
780.708	37.83689721
780.886	37.90867119
781.063	38.13191377
781.241	38.10073616
781.419	38.05482115
781.596	38.10094354
781.774	38.15165979
781.952	37.95464289
782.129	37.7495716
782.307	37.83750565
782.485	37.60627775
782.662	37.3218751
782.84	37.27365245
783.017	37.33142283
783.195	37.38876435
783.372	37.32014675
783.55	37.56833046
783.727	37.75655467
783.905	37.75285667
784.082	37.54766494
784.26	37.41575385
784.437	37.75853798
784.615	37.74943456
784.792	37.55884787
784.969	37.55792433
785.147	37.66798511
785.324	37.67806568
785.501	37.50474717
785.679	37.58270636
785.856	37.82256897
786.033	37.84862225
786.211	37.82683489
786.388	37.96558091
786.565	38.24653685
786.742	38.20742307
786.92	38.17750006
787.097	38.27550141
787.274	38.27897944
787.451	38.3966109
787.628	38.22991566
787.805	38.33474121
787.982	38.47682395
788.16	38.40764005
788.337	38.30558345
788.514	38.34970863
788.691	38.4114244
788.868	38.29001793
789.045	38.2231813
789.222	38.31104951
789.399	38.40110431
789.576	38.48987564
789.753	38.32314952
789.93	38.30164316
790.106	38.47621386
790.283	38.43322302
790.46	38.32576798
790.637	38.24207843
790.814	38.16959167
790.991	37.91537433
791.168	37.62582588
791.344	37.72787231
791.521	37.75648271
791.698	37.54017714
791.875	37.21011807
792.051	37.16664862
792.228	37.17043785
792.405	36.79056169
792.581	36.72815495
792.758	36.82552527
792.935	36.92776918
793.111	36.92582891
793.288	36.63545739
793.465	36.41900761
793.641	36.63811976
793.818	36.67297673
793.994	36.42161267
794.171	36.17247476
794.347	36.31881387
794.524	36.47217272
794.7	36.40073885
794.877	36.27755237
795.053	36.46321734
795.23	36.66994112
795.406	36.60045895
795.583	36.53203137
795.759	36.62998453
795.935	36.88151992
796.112	37.00793523
796.288	37.05289748
796.464	37.09254357
796.641	37.0007375
796.817	37.02160257
796.993	36.98480423
797.169	37.57943188
797.346	37.61968792
797.522	37.52148429
797.698	37.48817903
797.874	37.75886181
798.051	37.61513487
798.227	37.30166481
798.403	37.3377371
798.579	37.45917333
798.755	37.23241129
798.931	36.78449983
799.107	36.8937601
799.283	37.07409466
799.459	37.30778019
799.635	37.06604202
799.811	37.07070921
799.987	37.07198533
800.163	36.92182561
800.339	36.74456432
800.515	36.55445401
800.691	36.96645728
800.867	36.85643254
801.043	36.69085588
801.219	36.49327669
801.395	36.62716869
801.571	36.72348528
801.746	36.76836933
801.922	36.85407715
802.098	37.05442706
802.274	37.40920378
802.45	37.40810607
802.625	37.62235022
802.801	37.8158058
802.977	37.99428883
803.152	37.65641054
803.328	37.42832236
803.504	37.34391186
803.679	37.04702756
803.855	38.05733895
804.031	37.96726987
804.206	38.27193603
804.382	37.95970657
804.557	37.6424516
804.733	37.91415384
804.909	38.01158445
805.084	38.0043689
805.26	38.15912243
805.435	38.28758935
805.61	38.4833687
805.786	38.65963015
805.961	38.1910592
806.137	38.05590241
806.312	38.13898849
806.488	38.13406841
806.663	38.09132705
806.838	38.17275538
807.014	38.20560748
807.189	38.52923094
807.364	38.88069873
807.54	37.94931116
807.715	38.16541784
807.89	37.55629376
808.065	37.18390748
808.241	37.17555672
808.416	37.32656751
808.591	37.27361797
808.766	37.04141168
808.941	36.47360138
809.116	36.25527328
809.291	35.84517127
809.467	35.44893444
809.642	35.52433517
809.817	35.36167314
809.992	34.93417393
810.167	34.4711586
810.342	34.46968437
810.517	34.61328643
810.692	34.6940378
810.867	34.40335199
811.042	34.28917286
811.217	34.38425803
811.392	34.39318882
811.567	34.9381277
811.741	34.88769211
811.916	35.3934278
812.091	34.51582675
812.266	34.42893262
812.441	34.63575915
812.616	35.10045814
812.79	34.74748482
812.965	34.70941683
813.14	34.66318184
813.315	35.05030333
813.489	35.01357455
813.664	35.48810521
813.839	35.82198047
814.013	35.79945698
814.188	36.39721941
814.363	36.41916063
814.537	36.03867272
814.712	36.30177109
814.887	36.29606766
815.061	35.93725086
815.236	36.07215404
815.41	36.4604237
815.585	36.13149573
815.759	36.2451139
815.934	36.12848907
816.108	36.29292987
816.283	35.99012098
816.457	36.52928222
816.631	36.65802108
816.806	36.79143921
816.98	36.45154777
817.155	36.53142271
817.329	36.0156809
817.503	36.22286527
817.678	36.02198882
817.852	35.09008575
818.026	35.11406767
818.201	35.49685478
818.375	35.75863098
818.549	35.6278719
818.723	35.82965534
818.897	35.78203054
819.072	35.73295055
819.246	35.69199192
819.42	35.84891532
819.594	36.09040685
819.768	36.0345475
819.942	36.19575114
820.116	36.26292386
820.29	36.44526076
820.465	36.47252902
820.639	36.61874711
820.813	36.60731265
820.987	36.67203513
821.161	36.62761735
821.335	36.53071009
821.509	36.71023565
821.682	36.5938102
821.856	36.61098135
822.03	36.45535576
822.204	36.42993108
822.378	36.38833905
822.552	36.33637927
822.726	36.51751665
822.9	36.52607878
823.073	36.556304
823.247	36.40363816
823.421	36.33702785
823.595	36.08024167
823.768	35.86933566
823.942	35.69124818
824.116	35.34974747
824.289	35.01417211
824.463	35.16351482
824.637	35.4228194
824.81	35.15298217
824.984	35.35361057
825.158	35.36031848
825.331	35.65534984
825.505	35.50219119
825.678	35.3910788
825.852	35.10316369
826.025	35.32253026
826.199	35.29181202
826.372	35.07512859
826.546	34.89906865
826.719	34.77719626
826.893	34.57271999
827.066	34.2649389
827.24	34.70590056
827.413	34.64302564
827.586	34.06692301
827.76	34.05996245
827.933	34.08733359
828.106	34.06496187
828.28	33.20870511
828.453	32.86943755
828.626	33.1982092
828.799	32.88041185
828.973	32.57344874
829.146	32.58878753
829.319	32.89633877
829.492	33.9008769
829.665	33.50621155
829.839	33.56819069
830.012	33.67456629
830.185	34.35955667
830.358	34.60945169
830.531	34.60932119
830.704	35.25843133
830.877	34.40407847
831.05	34.77377152
831.223	34.9384766
831.396	35.17660153
831.569	35.49194891
831.742	35.73729795
831.915	35.94507383
832.088	36.20837612
832.261	35.86566118
832.434	35.93294143
832.607	35.99863899
832.779	36.19977923
832.952	36.93639385
833.125	36.77885766
833.298	36.88222441
833.471	36.87481503
833.643	36.91981947
833.816	35.99849627
833.989	35.45898417
834.162	36.17801165
834.334	36.999498
834.507	37.84393671
834.68	37.21438126
834.852	37.69588179
835.025	38.95431997
835.198	38.21311528
835.37	36.61450446
835.543	37.09502674
835.715	37.80794003
835.888	37.25540211
836.061	36.48663718
836.233	38.69009221
836.406	39.01092582
836.578	37.22751909
836.751	37.62574646
836.923	36.38667484
837.095	36.8507106
837.268	36.35294612
837.44	37.60203861
837.613	38.67561134
837.785	37.69711265
837.957	34.26237602
838.13	35.44781145
838.302	36.26348819
838.474	36.63988983
838.647	35.14551427
838.819	35.88043015
838.991	36.8226896
839.163	35.48821213
839.336	33.4960004
839.508	33.70987233
839.68	36.75728471
839.852	34.8879467
840.024	32.81744846
840.196	33.33122749
840.368	33.79719023
840.541	35.22408484
840.713	33.78483795
840.885	32.4522223
841.057	31.42707633
841.229	29.06198315
841.401	26.53242046
841.573	30.09894404
841.745	28.91249013
841.917	28.2885936
842.089	27.93081358
842.261	28.68137025
842.432	30.49531206
842.604	30.1182806
842.776	32.22766331
842.948	34.92580182
843.12	37.15619104
843.292	36.04055818
843.464	33.32298458
843.635	34.25012974
843.807	33.26940547
843.979	30.48666597
844.151	29.42627346
844.322	35.53277348
844.494	38.02463752
844.666	41.96418763
844.837	44.76448295
845.009	49.25888777
845.181	47.58372423
845.352	45.034566
845.524	42.90544479
845.695	44.6172923
845.867	44.66557501
846.039	44.43278689
846.21	42.20770564
846.382	43.53393086
846.553	46.42907058
846.725	47.74737988
846.896	44.22360248
847.068	42.69247189
847.239	44.84177664
847.41	46.55925312
847.582	46.80661009
847.753	47.34082397
847.925	43.4037524
848.096	46.77060134
848.267	43.66218015
848.439	43.37650179
848.61	44.69851214
848.781	44.01802102
848.952	46.34017904
849.124	50.55871039
849.295	45.66804815
849.466	40.22763649
849.637	30.60069381
849.808	35.56214114
849.98	31.48666294
850.151	30.61341487
850.322	23.09679984
850.493	20.10858637
850.664	21.60688064
850.835	24.46651173
851.006	21.48070907
851.177	19.92522542
851.348	27.17829129
851.519	26.75658038
851.69	18.06769783
851.861	13.30927137
852.032	13.13529821
852.203	10.59331666
852.374	11.97522368
852.545	-3.19323785
852.716	0.73134007
852.887	0.63477669
853.057	9.52167078
853.228	9.7189943
853.399	4.64921466
853.57	8.98191425
853.741	2.64900662
853.911	7.90312301
854.082	6.90438337
854.253	8.4077543
854.424	0.37807183
854.594	-0.32500508
854.765	2.72997033
854.936	-0.8138352
855.106	-13.92698882
855.277	-12.76862091
855.447	-2.41062308
855.618	-10.2217529
855.789	-10.07314525
855.959	-6.95010678
856.13	4.25455201
856.3	-2.98888281
856.471	-0.95322154
856.641	-7.53623188
856.812	-1.16593796
856.982	2.66838821
857.153	-8.24214203
857.323	-7.48888369
857.493	-14.10100024
857.664	-11.84845006
857.834	-16.81024447
858.004	-12.02339181
858.175	-5.76187261
858.345	-0.90303161
858.515	-4.82446694
858.686	5.50495851
858.856	1.85705031
859.026	1.13973102
859.196	9.08909707
859.367	11.44446652
859.537	12.87356322
859.707	19.92114547
859.877	20.82130966
860.047	13.93841167
860.217	13.10082719
860.387	12.75869426
860.558	11.47847785
860.728	17.89709172
860.898	16.56231064
861.068	20.52833233
861.238	18.44639418
861.408	24.40635969
861.578	17.76078181
861.748	18.54960189
861.918	8.07467911
862.088	13.95245501
862.257	17.08906589
862.427	24.0111034
862.597	12.43153132
862.767	7.20066983
862.937	18.88258142
863.107	12.36178055
863.277	0.62676277
863.446	0.68344206
863.616	11.86391393
863.786	23.66863905
863.956	24.72334683
864.125	20.38252926
864.295	22.56020279
864.465	22.89708363
864.634	20.61692592
864.804	23.2112122
864.974	37.53875507
865.143	49.16061138
865.313	51.12237509
865.482	58.8502613
865.652	65.18282989
865.822	66.79850582
865.991	60.27748132
866.161	56.86653772
866.33	49.83089064
866.5	39.13331859
866.669	37.43842365
866.838	31.14303824
867.008	39.22615077
867.177	34.75596411
867.347	25.24947784
867.516	24.81293748
867.685	28.94548917
867.855	37.40596628
868.024	46.29787234
868.193	33.85847797
868.363	44.99328859
868.532	30.18765298
868.701	19.41251596
868.87	15.55615991
869.04	8.71243452
869.209	0.1179593
869.378	-2.92631019
869.547	-2.14992928
869.716	10.79156396
869.885	25.88768572
870.055	10.87139255
870.224	20.89707026
870.393	28.22122571
870.562	25.90673575
870.731	17.53043478
870.9	17.9912073
871.069	13.16636852
871.238	21.64839052
871.407	13.97288843
871.576	4.6964106
871.745	28.02350758
871.914	23.25735051
872.083	16.25522218
872.251	28.25840574
872.42	30.80213904
872.589	34.74146671
872.758	28.61788618
872.927	17.26979577
873.096	12.153993
873.264	12.39453011
873.433	8.82766376
873.602	18.94632698
873.771	15.06610127
873.939	16.60300484
874.108	21.95283227
874.277	25.38673448
874.445	24.18927187
874.614	25.50614948
874.783	14.0695618
874.951	8.86001181
875.12	14.21612845
875.288	6.61568558
875.457	5.15303476
875.625	5.76890827
875.794	9.34460214
875.962	8.62781092
876.131	5.0667895
876.299	5.04382593
876.468	11.16364191
876.636	16.76049542
876.805	16.89286285
876.973	17.62211403
877.141	24.55120533
877.31	30.04868222
877.478	33.48660219
877.647	27.36049746
877.815	36.8069576
877.983	44.03613535
878.151	45.02739499
878.32	50.37130668
878.488	53.07779763
878.656	52.58908197
878.824	48.62271192
878.992	43.01314085
879.161	48.16539393
879.329	54.42226698
879.497	50.43198714
879.665	55.20224962
879.833	60.59193661
880.001	63.38646339
880.169	50.96559378
880.337	54.85885586
880.505	59.8982052
880.673	49.30368923
880.841	46.73178062
881.009	37.51763047
881.177	58.59441152
881.345	51.76397128
881.513	32.36730707
881.681	32.90215589
881.849	32.82777216
882.017	24.46916077
882.185	13.98112548
882.352	11.42162819
882.52	17.01789264
882.688	26.79546409
882.856	-22.85375962
883.024	-45.91928251
883.191	-39.27019983
883.359	-35.66787004
883.527	-60.52009456
883.694	-32.61675315
883.862	-24.5912361
884.03	-33.66206443
884.197	-24.72057857
884.365	-71.79487179
884.533	-26.09262883
884.7	-58.16678153
884.868	-57.10037175
885.035	-26.66666667
885.203	-22.45059289
885.37	-45.10723861
885.538	-23.80066939
885.705	7.78301887
885.873	46.02135722
886.04	64.64924347
886.208	27.92696026
886.375	51.0370836
886.542	62.3853211
886.71	62.0414673
886.877	71.32773109
