Data from printlaranja_Reflection_00001.txt Node
Date: Thu Apr 11 13:53:55 AEST 2024
User: uqkchene_local
Spectrometer: USB4E02642
Trigger mode: 4
Integration Time (sec): 2.541000E-2
Scans to average: 101
Electric dark correction enabled: true
Nonlinearity correction enabled: false
Boxcar width: 10
XAxis mode: Wavelengths
Number of Pixels in Spectrum: 3648
>>>>>Begin Spectral Data<<<<<
179.217	119.78640496
179.432	137.29334871
179.647	134.34553692
179.862	148.22452882
180.077	133.79080119
180.293	122.64801086
180.508	125.51031916
180.723	116.72285907
180.938	74.20777635
181.153	47.41475088
181.368	36.79582303
181.583	24.87816381
181.798	16.40421744
182.013	10.19959606
182.228	8.72751499
182.443	7.41012472
182.658	9.72104818
182.873	9.28859447
183.088	11.09391624
183.303	7.72210192
183.518	7.56122334
183.733	7.26454348
183.948	4.81889222
184.162	4.99942877
184.377	5.2881007
184.592	4.5927263
184.807	3.51128839
185.022	3.70809849
185.237	4.63753706
185.452	4.32620499
185.667	3.81115607
185.882	3.07920244
186.096	4.53793346
186.311	4.70929623
186.526	4.08818831
186.741	4.31432157
186.956	3.55998513
187.17	2.64622211
187.385	2.47508724
187.6	1.13301201
187.815	1.55439491
188.03	0.84277202
188.244	1.47017045
188.459	1.65340407
188.674	0.89138271
188.889	0.6115063
189.103	0.79891817
189.318	0.78123613
189.533	0.74779062
189.747	-0.03193924
189.962	-0.12832683
190.177	0.45042658
190.391	1.46675757
190.606	0.04408938
190.821	-0.51637861
191.035	-0.82326526
191.25	-1.71768647
191.465	-2.3257064
191.679	-1.32657043
191.894	-1.47552697
192.109	-1.27189437
192.323	-1.05066877
192.538	-0.96718418
192.752	-1.17698502
192.967	-1.34660422
193.181	-1.75415968
193.396	-1.95133614
193.611	-1.47439071
193.825	-0.89581769
194.04	-0.56620052
194.254	-0.55061109
194.469	-0.40408799
194.683	-0.30190726
194.898	-1.03650539
195.112	-2.32879234
195.327	-2.92898642
195.541	-2.37704767
195.756	-2.75275183
195.97	-1.15807654
196.184	-1.15973348
196.399	-0.59637532
196.613	-0.2807984
196.828	-0.23806089
197.042	0.94244541
197.257	1.31542072
197.471	1.47053656
197.685	1.94710992
197.9	1.61360511
198.114	1.3954613
198.328	0.51223281
198.543	0.63361318
198.757	0.47416932
198.971	0.59520608
199.186	2.0888881
199.4	2.19963458
199.614	3.1621247
199.829	3.76634427
200.043	3.86667833
200.257	3.74068791
200.471	2.80119033
200.686	2.82374293
200.9	3.02314428
201.114	3.70758014
201.328	4.00861993
201.543	3.05558527
201.757	2.49138146
201.971	1.57467734
202.185	1.61364603
202.399	0.26744165
202.614	-0.51410636
202.828	1.05696146
203.042	1.5839661
203.256	2.18592571
203.47	1.90537062
203.684	0.22528029
203.899	0.29920443
204.113	0.1514624
204.327	-0.16318595
204.541	0.46926488
204.755	1.37500212
204.969	1.4182103
205.183	2.14381572
205.397	1.71186441
205.611	1.44573441
205.825	1.15329007
206.039	1.30434783
206.253	1.91477661
206.467	2.30735887
206.681	2.11988059
206.895	4.48204856
207.109	4.83411542
207.323	4.39489497
207.537	4.03556998
207.751	4.51396352
207.965	4.83767145
208.179	4.44895487
208.393	4.09896421
208.607	3.87585509
208.821	4.17883032
209.035	3.8659415
209.249	3.71272163
209.463	3.91991843
209.677	2.32395625
209.891	1.64660662
210.104	0.5793117
210.318	0.99570448
210.532	1.18004324
210.746	1.13009329
210.96	1.93163713
211.174	1.77348638
211.387	1.19129326
211.601	1.55714426
211.815	1.4492516
212.029	0.51009388
212.243	-0.78778269
212.456	-1.53382956
212.67	-1.92385377
212.884	-1.45124717
213.098	-1.58738132
213.311	-0.64270571
213.525	-0.76758212
213.739	-0.1740444
213.953	-0.32307263
214.166	0.59027038
214.38	0.94023276
214.594	2.15940641
214.807	1.59789117
215.021	1.29781753
215.235	0.84952641
215.448	0.49175539
215.662	0.4052455
215.876	-0.54916318
216.089	-1.17244748
216.303	-1.66518471
216.516	-1.22689509
216.73	-0.74796592
216.944	0.19277646
217.157	0.86641113
217.371	0.42128183
217.584	0.45174538
217.798	-0.68727434
218.011	-1.56344435
218.225	-2.02841396
218.439	-2.2876882
218.652	-2.721244
218.866	-2.16556346
219.079	-2.99455836
219.293	-3.17669328
219.506	-1.96164903
219.719	-1.71754794
219.933	-1.24722614
220.146	-0.53408429
220.36	0.48017473
220.573	1.20581114
220.787	1.581481
221	1.80608671
221.214	2.07197383
221.427	0.40000653
221.64	0.30935299
221.854	0.1518793
222.067	1.13724905
222.28	2.08784005
222.494	1.82895712
222.707	2.23833287
222.92	1.91136452
223.134	2.22775458
223.347	1.36217564
223.56	2.62564814
223.774	3.07605119
223.987	3.24417331
224.2	3.12841829
224.414	2.73959647
224.627	3.09732425
224.84	2.64694859
225.053	3.33162878
225.267	3.23821589
225.48	2.64453119
225.693	2.92867047
225.906	4.80054397
226.119	4.22753931
226.333	4.14435112
226.546	3.28908025
226.759	2.4897203
226.972	3.25695045
227.185	2.56791012
227.398	3.19717133
227.612	2.32614307
227.825	2.28427163
228.038	1.17007051
228.251	0.26618122
228.464	-0.81465138
228.677	-0.55037385
228.89	0.28842318
229.103	-0.9618316
229.316	-0.42933755
229.529	-0.96799134
229.743	-1.45941531
229.956	-1.85714065
230.169	-2.5375141
230.382	-3.38501212
230.595	-2.48283311
230.808	-2.38914167
231.021	-2.28947612
231.234	-1.55055257
231.447	-1.18919737
231.66	-1.4557872
231.872	-1.36595617
232.085	-0.1227139
232.298	-0.15142068
232.511	0.12174662
232.724	0.7355231
232.937	0.57092991
233.15	0.27600534
233.363	-0.81635699
233.576	-0.21680622
233.789	-1.24986996
234.002	-1.54039047
234.214	-1.99882333
234.427	-0.80287471
234.64	-0.62751456
234.853	-0.04205025
235.066	-0.9905939
235.279	-1.31609151
235.491	-0.75582012
235.704	-1.52024423
235.917	-2.19157997
236.13	-2.15289497
236.342	-3.52083663
236.555	-4.08150179
236.768	-4.15787454
236.981	-4.76052856
237.193	-5.54712473
237.406	-4.89179441
237.619	-3.98199226
237.832	-3.40075993
238.044	-2.87652305
238.257	-2.21003967
238.47	-2.20100315
238.682	-1.20383752
238.895	-2.24959662
239.108	-1.62731677
239.32	-2.90231386
239.533	-1.19596058
239.746	-1.79284392
239.958	-2.00643661
240.171	-1.85846924
240.383	-1.83976261
240.596	-1.63400186
240.808	-0.54915213
241.021	-1.04565737
241.234	-0.40963855
241.446	0.22633193
241.659	0.39090735
241.871	-0.38510343
242.084	-1.83351338
242.296	-2.79586423
242.509	-3.66857388
242.721	-3.04886431
242.934	-2.39494519
243.146	-3.56793295
243.359	-3.00670856
243.571	-3.54055041
243.784	-3.68987447
243.996	-4.42833896
244.208	-3.98842551
244.421	-5.32186916
244.633	-4.40670424
244.846	-4.60239247
245.058	-4.09272323
245.27	-4.37594118
245.483	-3.80261291
245.695	-4.17131123
245.907	-4.53685091
246.12	-3.43373145
246.332	-3.31909683
246.544	-2.62622791
246.757	-2.60485651
246.969	-1.98975819
247.181	-2.43317818
247.394	-3.66413919
247.606	-2.71883104
247.818	-3.04196342
248.03	-3.48546552
248.243	-2.81743792
248.455	-3.95925181
248.667	-3.28485812
248.879	-2.47881266
249.092	-4.16845786
249.304	-3.82107441
249.516	-4.58682669
249.728	-4.20776841
249.94	-4.70586551
250.153	-4.94901408
250.365	-5.33760764
250.577	-5.07668205
250.789	-4.16945342
251.001	-4.58325553
251.213	-4.69840263
251.425	-4.32354218
251.637	-4.15806461
251.85	-2.89871893
252.062	-2.6819259
252.274	-2.30010481
252.486	-1.66905034
252.698	-1.93715637
252.91	-1.6322975
253.122	-1.62212113
253.334	-1.22691537
253.546	-0.06227884
253.758	-0.66139448
253.97	-0.01408411
254.182	0.13881294
254.394	0.06025278
254.606	-0.0376464
254.818	0.4799132
255.03	-0.6363356
255.242	-1.49630151
255.454	-1.10480867
255.666	-0.5783349
255.877	-1.46522211
256.089	-2.96662197
256.301	-3.33300408
256.513	-3.9207061
256.725	-3.89371776
256.937	-4.15602112
257.149	-3.77486342
257.361	-2.71140791
257.572	-2.63487731
257.784	-2.06715144
257.996	-2.72322346
258.208	-2.59620095
258.42	-2.69329126
258.631	-3.50831351
258.843	-2.15407629
259.055	-2.31027151
259.267	-2.18847149
259.479	-1.82602287
259.69	-1.60637094
259.902	-1.20369494
260.114	-0.70809112
260.325	-0.41320082
260.537	0.6003442
260.749	-0.16670223
260.961	-0.04110207
261.172	-0.88957959
261.384	-1.44618684
261.596	-0.97548539
261.807	-1.15069825
262.019	-1.10555338
262.23	-1.84902991
262.442	-1.70056913
262.654	-1.61263871
262.865	-1.26715368
263.077	-0.36258158
263.288	-1.25338844
263.5	-1.30569282
263.712	-1.5691582
263.923	-1.40010698
264.135	-1.63790114
264.346	-2.08352823
264.558	-3.05926056
264.769	-3.81807671
264.981	-3.59604718
265.192	-3.5381901
265.404	-3.20178605
265.615	-3.08115835
265.827	-2.91902444
266.038	-3.13709593
266.25	-3.19063528
266.461	-3.18919621
266.673	-2.88118505
266.884	-3.61961129
267.095	-2.86378299
267.307	-3.55491366
267.518	-3.98891896
267.73	-3.50044309
267.941	-3.15291513
268.152	-3.48769087
268.364	-3.77696946
268.575	-3.46389259
268.786	-3.05588964
268.998	-2.66841485
269.209	-2.16793301
269.42	-2.17588945
269.632	-1.28341214
269.843	-0.61899449
270.054	0.53870043
270.265	0.45868281
270.477	0.10486677
270.688	0.24583806
270.899	0.17129559
271.11	-0.12708574
271.322	0.11015152
271.533	0.29829362
271.744	0.35383042
271.955	0.02940277
272.166	-0.49943006
272.378	-1.29380244
272.589	-0.13177382
272.8	-0.32268174
273.011	-0.68331817
273.222	-0.28868896
273.433	-0.60599728
273.644	-0.61816672
273.856	-0.32466411
274.067	-1.28507646
274.278	-1.82797567
274.489	-2.34447432
274.7	-2.44705391
274.911	-2.38310394
275.122	-2.39075621
275.333	-3.2603395
275.544	-3.20351248
275.755	-3.17789973
275.966	-3.58824145
276.177	-4.22520396
276.388	-4.09297744
276.599	-3.48128706
276.81	-2.23876244
277.021	-2.65892707
277.232	-2.16240791
277.443	-2.05339761
277.654	-2.30895398
277.865	-1.93280596
278.076	-2.05447936
278.287	-2.27455209
278.497	-1.19693095
278.708	-1.43200275
278.919	-1.86357364
279.13	-1.42883104
279.341	-1.51901304
279.552	-0.94160903
279.763	-0.13548163
279.973	-0.07919158
280.184	0.57584988
280.395	0.27685186
280.606	1.27380156
280.817	0.94592671
281.027	0.52997176
281.238	0.22564505
281.449	0.09624744
281.66	0.39201983
281.87	0.37759323
282.081	-0.0263548
282.292	0.55808185
282.503	1.27916052
282.713	1.08439821
282.924	0.95631919
283.135	1.30856767
283.345	2.38105228
283.556	2.22728739
283.767	2.33768663
283.977	1.90670295
284.188	1.68522574
284.399	1.93000277
284.609	1.28429656
284.82	2.05400791
285.03	1.3559631
285.241	1.89882287
285.451	1.75386089
285.662	1.31607678
285.873	1.3449476
286.083	1.11438777
286.294	1.27406486
286.504	1.62372621
286.715	1.10162065
286.925	0.99338691
287.136	1.11058646
287.346	0.41112295
287.557	0.21971036
287.767	-0.91505219
287.978	-0.80112621
288.188	-0.44088323
288.399	-0.2092488
288.609	0.63823693
288.819	0.20330773
289.03	0.61595934
289.24	0.35718291
289.451	0.65302384
289.661	0.945
289.871	1.12799226
290.082	1.59507429
290.292	1.51543913
290.502	1.14080885
290.713	1.18731198
290.923	0.66423314
291.133	1.07371013
291.344	1.00933672
291.554	1.19546557
291.764	1.5416883
291.974	1.63843031
292.185	2.15318168
292.395	2.05822982
292.605	1.94383541
292.815	1.73487699
293.026	1.06040088
293.236	1.38826306
293.446	1.39345988
293.656	1.28940461
293.866	1.38594604
294.077	1.00214907
294.287	0.88713441
294.497	0.81305776
294.707	0.89802119
294.917	1.22107617
295.127	1.29055715
295.337	1.43127026
295.548	1.21886724
295.758	1.11420287
295.968	0.99337748
296.178	1.00081182
296.388	1.08028486
296.598	1.13426634
296.808	1.09190611
297.018	1.01596367
297.228	1.09535831
297.438	1.15990591
297.648	1.18925327
297.858	1.30865825
298.068	1.22136859
298.278	1.19032047
298.488	1.28945877
298.698	1.36728362
298.908	1.40102433
299.118	1.39772894
299.328	1.34488969
299.538	1.35660034
299.748	1.3374385
299.957	1.31646792
300.167	1.34801195
300.377	1.29868187
300.587	1.30565327
300.797	1.29253497
301.007	1.26740757
301.217	1.30127414
301.426	1.32592473
301.636	1.29499111
301.846	1.29841257
302.056	1.27611178
302.266	1.23894267
302.475	1.28244727
302.685	1.27900012
302.895	1.28853357
303.105	1.26635369
303.314	1.25683552
303.524	1.2476603
303.734	1.24977912
303.944	1.22174507
304.153	1.20869439
304.363	1.21744478
304.573	1.20690829
304.782	1.23360513
304.992	1.23645102
305.202	1.22940849
305.411	1.20777223
305.621	1.20142047
305.831	1.19851461
306.04	1.19676238
306.25	1.20577303
306.459	1.20076436
306.669	1.21134757
306.878	1.20579424
307.088	1.21141164
307.298	1.1914514
307.507	1.19354994
307.717	1.18640797
307.926	1.18680463
308.136	1.18468528
308.345	1.19350729
308.555	1.20034281
308.764	1.19923499
308.974	1.19776897
309.183	1.19092802
309.392	1.18915775
309.602	1.17396193
309.811	1.19194145
310.021	1.18294086
310.23	1.17916608
310.44	1.18510323
310.649	1.18578518
310.858	1.19074261
311.068	1.17691958
311.277	1.17172621
311.486	1.17530669
311.696	1.18735908
311.905	1.18704497
312.114	1.19918094
312.324	1.20127668
312.533	1.20287404
312.742	1.20480782
312.952	1.21262943
313.161	1.21727457
313.37	1.22068515
313.579	1.22525095
313.789	1.22440447
313.998	1.23388258
314.207	1.23633885
314.416	1.24258614
314.625	1.24759995
314.835	1.24196766
315.044	1.24107511
315.253	1.24258049
315.462	1.24072795
315.671	1.25141898
315.88	1.25065114
316.09	1.25036111
316.299	1.24686629
316.508	1.23730541
316.717	1.23715613
316.926	1.24095554
317.135	1.23483272
317.344	1.23166308
317.553	1.22806389
317.762	1.23618285
317.971	1.23672344
318.18	1.24132285
318.389	1.2408168
318.598	1.23005178
318.807	1.23120939
319.016	1.22990193
319.225	1.23010633
319.434	1.22447654
319.643	1.21489583
319.852	1.22302778
320.061	1.21982666
320.27	1.21812669
320.479	1.21349444
320.688	1.21463748
320.897	1.21883333
321.105	1.21833515
321.314	1.21712892
321.523	1.22013268
321.732	1.21713504
321.941	1.22775556
322.15	1.21750863
322.359	1.21653965
322.567	1.21713596
322.776	1.21587302
322.985	1.21841607
323.194	1.21504567
323.403	1.2149076
323.611	1.21726163
323.82	1.22087391
324.029	1.2249505
324.237	1.22357302
324.446	1.22242784
324.655	1.22722575
324.864	1.22902862
325.072	1.22989508
325.281	1.22789783
325.49	1.23037575
325.698	1.23105598
325.907	1.23580277
326.116	1.23595009
326.324	1.22698344
326.533	1.23041901
326.741	1.2333924
326.95	1.23091568
327.159	1.23428942
327.367	1.23653033
327.576	1.23792571
327.784	1.2392135
327.993	1.23595301
328.201	1.23498253
328.41	1.23508759
328.618	1.2352137
328.827	1.23811346
329.035	1.23408917
329.244	1.23491369
329.452	1.2348138
329.661	1.24028697
329.869	1.23752531
330.078	1.23711358
330.286	1.23453214
330.495	1.23713258
330.703	1.23993805
330.911	1.24199545
331.12	1.23723397
331.328	1.23728767
331.537	1.23185617
331.745	1.23095494
331.953	1.23298319
332.162	1.23502057
332.37	1.23733785
332.578	1.24125694
332.787	1.24249489
332.995	1.24200195
333.203	1.24303585
333.411	1.24005427
333.62	1.23826119
333.828	1.24094879
334.036	1.23709961
334.244	1.23765992
334.453	1.23603622
334.661	1.23628306
334.869	1.23470218
335.077	1.23942872
335.285	1.23592819
335.494	1.24069985
335.702	1.24420883
335.91	1.25105762
336.118	1.25086696
336.326	1.25292889
336.534	1.25293247
336.742	1.25104062
336.951	1.25072778
337.159	1.25266337
337.367	1.2552681
337.575	1.25470145
337.783	1.25767776
337.991	1.26154665
338.199	1.26274973
338.407	1.26366627
338.615	1.26795074
338.823	1.26902578
339.031	1.2659647
339.239	1.26458764
339.447	1.26397773
339.655	1.26543864
339.863	1.26498876
340.071	1.26047156
340.279	1.25962954
340.487	1.25945293
340.695	1.25986766
340.903	1.25488687
341.11	1.25785519
341.318	1.25533531
341.526	1.25359195
341.734	1.25288619
341.942	1.25102352
342.15	1.25149298
342.358	1.2503841
342.565	1.2494357
342.773	1.25049121
342.981	1.24812483
343.189	1.25007889
343.397	1.25469508
343.604	1.25848609
343.812	1.25624402
344.02	1.25867145
344.228	1.25840661
344.435	1.2606667
344.643	1.26021788
344.851	1.26114902
345.058	1.26048771
345.266	1.26240649
345.474	1.26267843
345.681	1.26444229
345.889	1.26391497
346.097	1.26320978
346.304	1.26237121
346.512	1.26447335
346.72	1.26501778
346.927	1.26396367
347.135	1.263136
347.342	1.26151106
347.55	1.26123701
347.758	1.26357921
347.965	1.26353855
348.173	1.26615546
348.38	1.26994624
348.588	1.27327932
348.795	1.27265753
349.003	1.27236732
349.21	1.2739241
349.418	1.27456241
349.625	1.27253059
349.833	1.27390967
350.04	1.27440843
350.247	1.2784388
350.455	1.2796947
350.662	1.28232469
350.87	1.28447575
351.077	1.28659681
351.284	1.2872038
351.492	1.29134016
351.699	1.29266534
351.906	1.29218379
352.114	1.28645909
352.321	1.28718224
352.528	1.28253254
352.736	1.27994122
352.943	1.28204
353.15	1.28226327
353.358	1.28285373
353.565	1.28361054
353.772	1.28391477
353.979	1.29270351
354.187	1.29208482
354.394	1.2913552
354.601	1.29285131
354.808	1.29276026
355.015	1.29595457
355.223	1.29240265
355.43	1.28841775
355.637	1.2885453
355.844	1.28734309
356.051	1.28878707
356.258	1.28928457
356.465	1.29459496
356.673	1.29461369
356.88	1.29931166
357.087	1.29819425
357.294	1.29613429
357.501	1.29762392
357.708	1.29844244
357.915	1.29966339
358.122	1.30235104
358.329	1.30191954
358.536	1.30298768
358.743	1.30430925
358.95	1.30352796
359.157	1.30447989
359.364	1.30259144
359.571	1.30362822
359.778	1.3074237
359.985	1.30618565
360.192	1.30912013
360.399	1.31226426
360.606	1.31640982
360.812	1.31641615
361.019	1.31997519
361.226	1.31939012
361.433	1.32026496
361.64	1.32036625
361.847	1.32211176
362.054	1.32255135
362.26	1.3248492
362.467	1.32554538
362.674	1.32443974
362.881	1.32615216
363.088	1.32762417
363.294	1.32863728
363.501	1.32773519
363.708	1.32922505
363.915	1.33271453
364.121	1.33250163
364.328	1.33524893
364.535	1.33429561
364.741	1.33525372
364.948	1.33438264
365.155	1.33508062
365.361	1.33453335
365.568	1.33746007
365.775	1.33996357
365.981	1.34028606
366.188	1.34119933
366.395	1.34251715
366.601	1.34208458
366.808	1.33836758
367.014	1.33951502
367.221	1.34066135
367.427	1.34091616
367.634	1.34318447
367.84	1.34531705
368.047	1.34630117
368.254	1.34889807
368.46	1.35174905
368.667	1.35498027
368.873	1.35700635
369.079	1.357459
369.286	1.35881206
369.492	1.36110422
369.699	1.36307545
369.905	1.36128061
370.112	1.36420067
370.318	1.36744613
370.524	1.3700193
370.731	1.37438776
370.937	1.37718806
371.144	1.38439512
371.35	1.38738117
371.556	1.38968999
371.763	1.39220447
371.969	1.39550773
372.175	1.398418
372.381	1.3990788
372.588	1.39756077
372.794	1.3993151
373	1.40297408
373.206	1.4057954
373.413	1.40930589
373.619	1.41266096
373.825	1.41389135
374.031	1.41211869
374.238	1.41475065
374.444	1.41392816
374.65	1.41507272
374.856	1.41577851
375.062	1.4170011
375.268	1.41794157
375.475	1.41728331
375.681	1.42034315
375.887	1.41874767
376.093	1.42168292
376.299	1.4176532
376.505	1.42019781
376.711	1.42238698
376.917	1.42680035
377.123	1.42933823
377.329	1.43042349
377.535	1.43128177
377.741	1.43483221
377.947	1.43375792
378.153	1.43231837
378.359	1.43763138
378.565	1.44206409
378.771	1.44708203
378.977	1.45129873
379.183	1.45402933
379.389	1.45469141
379.595	1.45449574
379.801	1.45814343
380.007	1.45744148
380.213	1.46197497
380.418	1.46211379
380.624	1.46936078
380.83	1.47157616
381.036	1.47315865
381.242	1.47468258
381.448	1.47690441
381.653	1.47457094
381.859	1.4784483
382.065	1.47753169
382.271	1.47951643
382.476	1.48503643
382.682	1.48636402
382.888	1.48745641
383.094	1.48787225
383.299	1.48807071
383.505	1.4911065
383.711	1.49570427
383.916	1.49969298
384.122	1.50184914
384.328	1.50505237
384.533	1.50849694
384.739	1.511793
384.945	1.51087028
385.15	1.51315035
385.356	1.51696555
385.562	1.51915513
385.767	1.52262978
385.973	1.52891734
386.178	1.52806451
386.384	1.52662986
386.589	1.53065892
386.795	1.53101614
387	1.53487014
387.206	1.53702289
387.411	1.54121414
387.617	1.54482533
387.822	1.54406131
388.028	1.54663817
388.233	1.54806195
388.439	1.55132415
388.644	1.55260958
388.85	1.55385207
389.055	1.55729404
389.26	1.56419909
389.466	1.5664582
389.671	1.56963047
389.877	1.57264816
390.082	1.57326097
390.287	1.57609598
390.493	1.58180101
390.698	1.58726957
390.903	1.5906483
391.109	1.59650413
391.314	1.59823269
391.519	1.60109017
391.724	1.60328079
391.93	1.6042966
392.135	1.60822859
392.34	1.61247157
392.545	1.61677391
392.751	1.61812831
392.956	1.62195437
393.161	1.62386379
393.366	1.62762579
393.571	1.62913555
393.776	1.63321026
393.982	1.63621607
394.187	1.63947458
394.392	1.64097866
394.597	1.64341217
394.802	1.64513747
395.007	1.64720409
395.212	1.65068363
395.417	1.65238621
395.622	1.65744988
395.827	1.6603711
396.032	1.66341727
396.237	1.66486946
396.442	1.66714593
396.647	1.66751012
396.852	1.6724618
397.057	1.675348
397.262	1.67757372
397.467	1.6809432
397.672	1.68087366
397.877	1.68110005
398.082	1.68397615
398.287	1.68634811
398.492	1.68576477
398.697	1.68755103
398.902	1.6899712
399.107	1.68998989
399.311	1.69278819
399.516	1.69430371
399.721	1.69502117
399.926	1.69529049
400.131	1.69759888
400.336	1.69790438
400.54	1.70090801
400.745	1.70357838
400.95	1.70459106
401.155	1.70434736
401.359	1.70557635
401.564	1.7072893
401.769	1.70818132
401.974	1.71066494
402.178	1.71418885
402.383	1.71453227
402.588	1.7157301
402.792	1.71828783
402.997	1.7210403
403.202	1.71981413
403.406	1.72492152
403.611	1.72662259
403.815	1.72780531
404.02	1.72894037
404.225	1.73177655
404.429	1.73226106
404.634	1.7333167
404.838	1.73475741
405.043	1.73651724
405.247	1.73847831
405.452	1.74023403
405.656	1.74376756
405.861	1.74555461
406.065	1.74769775
406.27	1.75008627
406.474	1.75011371
406.679	1.75302234
406.883	1.75233266
407.088	1.75510459
407.292	1.75485436
407.497	1.75744104
407.701	1.75487842
407.905	1.75732032
408.11	1.75627658
408.314	1.76000365
408.518	1.7606425
408.723	1.76237545
408.927	1.76427602
409.131	1.76628994
409.336	1.76720668
409.54	1.76758878
409.744	1.76667202
409.949	1.76541896
410.153	1.76666441
410.357	1.76783399
410.561	1.76843913
410.766	1.77089073
410.97	1.76914539
411.174	1.77056997
411.378	1.76959679
411.582	1.77274216
411.787	1.77376964
411.991	1.7765042
412.195	1.77636398
412.399	1.77826077
412.603	1.77832288
412.807	1.77847353
413.011	1.77785019
413.215	1.77731455
413.419	1.77782097
413.624	1.77889088
413.828	1.78119197
414.032	1.78378845
414.236	1.78620235
414.44	1.78609023
414.644	1.78641448
414.848	1.78526743
415.052	1.7852568
415.256	1.78803101
415.46	1.78827556
415.664	1.78999523
415.868	1.78933873
416.072	1.79211512
416.275	1.79225651
416.479	1.7936855
416.683	1.79527069
416.887	1.79590772
417.091	1.79820937
417.295	1.79947961
417.499	1.80229049
417.703	1.8041777
417.906	1.80347226
418.11	1.80392426
418.314	1.80471965
418.518	1.80553652
418.722	1.80604834
418.925	1.80705449
419.129	1.81102768
419.333	1.81113177
419.537	1.81299583
419.74	1.81461309
419.944	1.8157015
420.148	1.81867391
420.352	1.81858657
420.555	1.82190596
420.759	1.82079767
420.963	1.82291544
421.166	1.8216765
421.37	1.82276777
421.573	1.82706914
421.777	1.82745029
421.981	1.82771443
422.184	1.83017959
422.388	1.83212203
422.591	1.83261869
422.795	1.83274194
422.999	1.83527357
423.202	1.83611413
423.406	1.83631731
423.609	1.8366028
423.813	1.83549891
424.016	1.83893198
424.22	1.84073026
424.423	1.84174634
424.627	1.84153167
424.83	1.84032263
425.033	1.84227725
425.237	1.843758
425.44	1.84521441
425.644	1.84563339
425.847	1.84323189
426.05	1.84497791
426.254	1.84650684
426.457	1.84845903
426.66	1.8486478
426.864	1.85174596
427.067	1.85354492
427.27	1.85446842
427.474	1.85551368
427.677	1.8562407
427.88	1.8596125
428.084	1.86257434
428.287	1.85920445
428.49	1.85931048
428.693	1.86070754
428.896	1.86099762
429.1	1.86387333
429.303	1.86494797
429.506	1.86268872
429.709	1.86756146
429.912	1.86844572
430.116	1.87196154
430.319	1.87136832
430.522	1.87244421
430.725	1.87150402
430.928	1.87350113
431.131	1.87448687
431.334	1.87534735
431.537	1.87679899
431.74	1.87794818
431.943	1.88097601
432.146	1.88207053
432.349	1.88281167
432.552	1.88493525
432.755	1.88683036
432.958	1.88448827
433.161	1.88610677
433.364	1.88741014
433.567	1.89033219
433.77	1.89331545
433.973	1.89270176
434.176	1.89246055
434.379	1.89179852
434.582	1.89457219
434.785	1.89602365
434.988	1.89851312
435.19	1.89720378
435.393	1.89773124
435.596	1.89985804
435.799	1.90077636
436.002	1.90373683
436.205	1.90297786
436.407	1.90493146
436.61	1.90452455
436.813	1.90895219
437.016	1.90988935
437.218	1.91325526
437.421	1.91443515
437.624	1.91552529
437.827	1.91393261
438.029	1.91434505
438.232	1.91352573
438.435	1.91534007
438.637	1.91811335
438.84	1.91731151
439.043	1.9172771
439.245	1.9164289
439.448	1.91835372
439.65	1.91742362
439.853	1.9173239
440.056	1.91832178
440.258	1.91740078
440.461	1.91860255
440.663	1.9175429
440.866	1.91857086
441.068	1.92045684
441.271	1.92183379
441.473	1.9214902
441.676	1.92379954
441.878	1.924435
442.081	1.92721252
442.283	1.92923454
442.486	1.93351658
442.688	1.93476375
442.89	1.93441091
443.093	1.93829256
443.295	1.9379472
443.498	1.93939749
443.7	1.94236042
443.902	1.94522408
444.105	1.94581339
444.307	1.94513839
444.509	1.94670242
444.712	1.94820923
444.914	1.95128803
445.116	1.954241
445.319	1.95414391
445.521	1.95562568
445.723	1.95722603
445.925	1.95876922
446.128	1.95941396
446.33	1.96307361
446.532	1.96428226
446.734	1.9642242
446.936	1.96541716
447.139	1.96819121
447.341	1.96807571
447.543	1.97261445
447.745	1.97515464
447.947	1.97371601
448.149	1.9751725
448.351	1.97635786
448.553	1.97789032
448.755	1.97850645
448.958	1.97872782
449.16	1.97814595
449.362	1.97995095
449.564	1.98174394
449.766	1.98205079
449.968	1.98363872
450.17	1.98601042
450.372	1.98796831
450.574	1.9861222
450.776	1.98698072
450.978	1.98766865
451.179	1.98802655
451.381	1.98943996
451.583	1.99062227
451.785	1.99172178
451.987	1.99300997
452.189	1.9968547
452.391	1.99771262
452.593	1.99889113
452.795	2.00039824
452.996	2.00329465
453.198	2.00710778
453.4	2.00913424
453.602	2.00870611
453.804	2.00971216
454.005	2.01056304
454.207	2.01209419
454.409	2.01143302
454.611	2.01433332
454.812	2.01693925
455.014	2.01925892
455.216	2.02123735
455.417	2.02603691
455.619	2.02683906
455.821	2.02831242
456.022	2.03008689
456.224	2.03274092
456.426	2.03319234
456.627	2.03512442
456.829	2.03793695
457.031	2.04019822
457.232	2.04168384
457.434	2.04269039
457.635	2.04483208
457.837	2.04907742
458.038	2.05339276
458.24	2.05591523
458.441	2.05781796
458.643	2.06107902
458.844	2.06026782
459.046	2.0612656
459.247	2.06487557
459.449	2.0677862
459.65	2.06802028
459.852	2.06965949
460.053	2.07169509
460.254	2.07286719
460.456	2.07460558
460.657	2.07747531
460.859	2.07989415
461.06	2.0813402
461.261	2.08352015
461.463	2.0874706
461.664	2.08968762
461.865	2.09175829
462.066	2.0936808
462.268	2.09467209
462.469	2.09892408
462.67	2.10296869
462.872	2.1053026
463.073	2.10940684
463.274	2.11283256
463.475	2.11473814
463.676	2.11800172
463.878	2.11954078
464.079	2.12332781
464.28	2.12614036
464.481	2.12783092
464.682	2.13185727
464.883	2.13495097
465.085	2.13761797
465.286	2.14097968
465.487	2.14350601
465.688	2.14550177
465.889	2.14734782
466.09	2.15170259
466.291	2.15449971
466.492	2.15776014
466.693	2.16123769
466.894	2.16486563
467.095	2.16880144
467.296	2.17097356
467.497	2.1734904
467.698	2.17683731
467.899	2.17949743
468.1	2.18410903
468.301	2.18788487
468.502	2.19118777
468.703	2.19620276
468.903	2.19897552
469.104	2.20277874
469.305	2.20546199
469.506	2.20879609
469.707	2.21402894
469.908	2.2171478
470.109	2.22214967
470.309	2.22590396
470.51	2.2290941
470.711	2.23303904
470.912	2.23479653
471.112	2.23760581
471.313	2.24149289
471.514	2.24581192
471.715	2.24886686
471.915	2.25291205
472.116	2.2563778
472.317	2.26159564
472.517	2.2639902
472.718	2.26933404
472.919	2.27411293
473.119	2.27816273
473.32	2.28146476
473.521	2.28770199
473.721	2.2930619
473.922	2.29741034
474.122	2.30188226
474.323	2.30629689
474.523	2.30970437
474.724	2.31401573
474.925	2.3189403
475.125	2.32451335
475.326	2.32848792
475.526	2.33262884
475.727	2.33749231
475.927	2.34435617
476.127	2.3483149
476.328	2.35215049
476.528	2.35584724
476.729	2.35998126
476.929	2.3647546
477.13	2.36905356
477.33	2.37468038
477.53	2.37953439
477.731	2.38166316
477.931	2.38709508
478.131	2.39225788
478.332	2.39742214
478.532	2.40289846
478.732	2.40870408
478.933	2.41457388
479.133	2.41960763
479.333	2.42423399
479.533	2.43087843
479.734	2.43615088
479.934	2.44069966
480.134	2.44476042
480.334	2.45126175
480.534	2.45850194
480.735	2.46478527
480.935	2.47164489
481.135	2.47815235
481.335	2.48269311
481.535	2.48908547
481.735	2.49478541
481.935	2.50319339
482.136	2.50860723
482.336	2.51510491
482.536	2.5214612
482.736	2.52668939
482.936	2.53337276
483.136	2.53986045
483.336	2.54538987
483.536	2.55232151
483.736	2.55854232
483.936	2.56562931
484.136	2.5735792
484.336	2.58089276
484.536	2.58679356
484.736	2.59303217
484.936	2.59971272
485.135	2.60796003
485.335	2.61391634
485.535	2.62381939
485.735	2.63034528
485.935	2.63882205
486.135	2.64697541
486.335	2.65607821
486.534	2.66379736
486.734	2.67282579
486.934	2.68287978
487.134	2.69050867
487.334	2.69939784
487.533	2.70930493
487.733	2.71800321
487.933	2.72623376
488.133	2.73580213
488.332	2.7438406
488.532	2.75352529
488.732	2.76365317
488.931	2.77374139
489.131	2.78360089
489.331	2.79264889
489.53	2.80235816
489.73	2.809398
489.93	2.8191195
490.129	2.82844669
490.329	2.83708487
490.528	2.84539671
490.728	2.85611882
490.928	2.86475023
491.127	2.87287313
491.327	2.88329703
491.526	2.8927839
491.726	2.9024291
491.925	2.91293272
492.125	2.92423733
492.324	2.93328925
492.524	2.94453396
492.723	2.95447062
492.922	2.9626655
493.122	2.97174042
493.321	2.98124915
493.521	2.98973995
493.72	2.99958176
493.919	3.01046573
494.119	3.02022953
494.318	3.03044358
494.517	3.04154354
494.717	3.05326856
494.916	3.06210236
495.115	3.07311167
495.315	3.08420997
495.514	3.09395544
495.713	3.10372218
495.912	3.11279268
496.112	3.12304258
496.311	3.13234284
496.51	3.14440624
496.709	3.15343183
496.908	3.16371472
497.108	3.17537922
497.307	3.18670868
497.506	3.19667139
497.705	3.20938685
497.904	3.21963545
498.103	3.23105643
498.302	3.2414577
498.501	3.25210424
498.701	3.26084523
498.9	3.2703943
499.099	3.28120767
499.298	3.2911353
499.497	3.30082316
499.696	3.31099096
499.895	3.32041662
500.094	3.3310366
500.293	3.33938832
500.492	3.34917525
500.691	3.35559977
500.89	3.36651104
501.088	3.37560635
501.287	3.38512733
501.486	3.3940511
501.685	3.40410213
501.884	3.41189965
502.083	3.42205995
502.282	3.42952862
502.481	3.43852467
502.679	3.4465189
502.878	3.45537768
503.077	3.46300522
503.276	3.47010267
503.475	3.47843772
503.673	3.48560199
503.872	3.49332521
504.071	3.50312292
504.27	3.5102264
504.468	3.51842146
504.667	3.52579813
504.866	3.53476667
505.064	3.54226192
505.263	3.55020286
505.462	3.55595686
505.66	3.56327781
505.859	3.56979627
506.058	3.57641241
506.256	3.58256533
506.455	3.58889386
506.653	3.59560741
506.852	3.60294818
507.05	3.60895433
507.249	3.61424064
507.448	3.62050007
507.646	3.62619772
507.845	3.63260996
508.043	3.63902398
508.242	3.64276803
508.44	3.64834805
508.638	3.65493903
508.837	3.66195981
509.035	3.66724323
509.234	3.67252857
509.432	3.67767374
509.631	3.68524147
509.829	3.69120444
510.027	3.69740266
510.226	3.70432565
510.424	3.71032023
510.622	3.71680311
510.821	3.72166377
511.019	3.72620149
511.217	3.73304364
511.415	3.73910307
511.614	3.74488388
511.812	3.74981796
512.01	3.7573639
512.208	3.76445184
512.407	3.77106471
512.605	3.77731552
512.803	3.78409219
513.001	3.79012597
513.199	3.79666448
513.398	3.80230211
513.596	3.80911304
513.794	3.81517346
513.992	3.8185319
514.19	3.82420209
514.388	3.82904671
514.586	3.83669623
514.784	3.84386219
514.982	3.85110488
515.18	3.85948279
515.378	3.86537136
515.576	3.87284617
515.774	3.88070931
515.972	3.89069295
516.17	3.89690017
516.368	3.90256169
516.566	3.91022753
516.764	3.9175834
516.962	3.92463277
517.16	3.93244623
517.358	3.94085499
517.556	3.94850499
517.754	3.95679333
517.952	3.96547082
518.149	3.97524059
518.347	3.98359869
518.545	3.99335955
518.743	4.00109802
518.941	4.0090709
519.138	4.01933096
519.336	4.02764952
519.534	4.03800961
519.732	4.04708723
519.929	4.05713636
520.127	4.06584463
520.325	4.07407057
520.523	4.08483458
520.72	4.09525173
520.918	4.10615417
521.116	4.11744485
521.313	4.12741919
521.511	4.13703871
521.709	4.14872974
521.906	4.1597715
522.104	4.17011767
522.301	4.1826954
522.499	4.19381789
522.696	4.20523607
522.894	4.21717995
523.092	4.22890948
523.289	4.23856588
523.487	4.24994639
523.684	4.26156406
523.882	4.27357731
524.079	4.28472944
524.276	4.29707747
524.474	4.31146222
524.671	4.32420554
524.869	4.33707935
525.066	4.35082182
525.264	4.36339367
525.461	4.37623141
525.658	4.38977448
525.856	4.40342328
526.053	4.41717239
526.25	4.43102942
526.448	4.44478118
526.645	4.46017136
526.842	4.4748835
527.039	4.48852389
527.237	4.5047884
527.434	4.52094438
527.631	4.53704954
527.828	4.55323949
528.026	4.57076054
528.223	4.58881968
528.42	4.60498956
528.617	4.62193101
528.814	4.63958956
529.012	4.65821842
529.209	4.67696522
529.406	4.69585926
529.603	4.71500262
529.8	4.73499923
529.997	4.75361891
530.194	4.7723166
530.391	4.79338434
530.588	4.81484916
530.785	4.83541557
530.982	4.85585722
531.179	4.87720332
531.376	4.89754811
531.573	4.91866781
531.77	4.93987434
531.967	4.96225099
532.164	4.9846518
532.361	5.00717367
532.558	5.03041694
532.755	5.05185248
532.952	5.07397768
533.149	5.09648492
533.346	5.11889147
533.543	5.14167121
533.739	5.16648023
533.936	5.19050805
534.133	5.21616404
534.33	5.24178114
534.527	5.26568871
534.723	5.29047465
534.92	5.31569533
535.117	5.34248007
535.314	5.3701973
535.51	5.39770228
535.707	5.42504527
535.904	5.45313193
536.1	5.48170665
536.297	5.5090865
536.494	5.53827934
536.69	5.56723878
536.887	5.59946693
537.084	5.62843807
537.28	5.65900599
537.477	5.68901701
537.674	5.71987601
537.87	5.74929136
538.067	5.78097659
538.263	5.81118236
538.46	5.84345506
538.656	5.87594432
538.853	5.90810367
539.049	5.94013466
539.246	5.97308485
539.442	6.00381074
539.639	6.03716368
539.835	6.07136362
540.032	6.10752137
540.228	6.14011513
540.424	6.17528031
540.621	6.2092915
540.817	6.24509193
541.014	6.27920896
541.21	6.3162365
541.406	6.35068168
541.603	6.38592131
541.799	6.42275653
541.995	6.45951018
542.191	6.49523202
542.388	6.53116219
542.584	6.56953005
542.78	6.60732597
542.976	6.6445583
543.173	6.68466405
543.369	6.72172961
543.565	6.76324915
543.761	6.80186845
543.957	6.83954185
544.154	6.87567454
544.35	6.91550089
544.546	6.95363198
544.742	6.99300745
544.938	7.02941936
545.134	7.06635773
545.33	7.10576592
545.526	7.14495392
545.722	7.1847522
545.919	7.22329264
546.115	7.26309105
546.311	7.30207822
546.507	7.34216474
546.703	7.37696515
546.899	7.4153626
547.095	7.45261161
547.29	7.4885039
547.486	7.52841105
547.682	7.56455347
547.878	7.60109655
548.074	7.63981226
548.27	7.67984094
548.466	7.71799238
548.662	7.75826415
548.858	7.79663756
549.053	7.83735858
549.249	7.87841812
549.445	7.91571262
549.641	7.95590134
549.837	7.99467989
550.032	8.03125903
550.228	8.06968935
550.424	8.10928462
550.62	8.14763974
550.815	8.18633578
551.011	8.22405575
551.207	8.26366
551.402	8.30280394
551.598	8.34026517
551.794	8.38045605
551.989	8.4190862
552.185	8.45676203
552.381	8.49591767
552.576	8.53357398
552.772	8.56976456
552.967	8.60650842
553.163	8.64234714
553.359	8.6792821
553.554	8.71758067
553.75	8.75347148
553.945	8.79012025
554.141	8.8296171
554.336	8.86689956
554.532	8.90224742
554.727	8.93877403
554.922	8.97870811
555.118	9.01533456
555.313	9.05333938
555.509	9.08998353
555.704	9.12548777
555.899	9.16074578
556.095	9.19770302
556.29	9.23485814
556.486	9.26720262
556.681	9.30273924
556.876	9.34009114
557.071	9.37459466
557.267	9.41003488
557.462	9.44425678
557.657	9.47923012
557.853	9.51277096
558.048	9.5484399
558.243	9.58219721
558.438	9.6162263
558.633	9.65138124
558.829	9.68630616
559.024	9.71979465
559.219	9.7536851
559.414	9.78497458
559.609	9.81968999
559.804	9.85347571
559.999	9.88463928
560.194	9.918513
560.39	9.95282592
560.585	9.98690063
560.78	10.02169645
560.975	10.05308902
561.17	10.08696723
561.365	10.12110131
561.56	10.15274439
561.755	10.18612384
561.95	10.2209218
562.145	10.25341417
562.34	10.28445411
562.535	10.31720151
562.729	10.34978602
562.924	10.38159882
563.119	10.41338314
563.314	10.44774203
563.509	10.48221427
563.704	10.51581336
563.899	10.5503941
564.093	10.58480572
564.288	10.61712847
564.483	10.64888951
564.678	10.68166938
564.873	10.71363934
565.067	10.74617444
565.262	10.77810466
565.457	10.81068009
565.652	10.84704312
565.846	10.87990286
566.041	10.91074753
566.236	10.94629709
566.43	10.97959174
566.625	11.01314648
566.82	11.04684161
567.014	11.0805802
567.209	11.11364711
567.404	11.14952398
567.598	11.18344876
567.793	11.21814193
567.987	11.25316319
568.182	11.28804491
568.376	11.32486769
568.571	11.36129806
568.765	11.39696474
568.96	11.43285931
569.154	11.47057972
569.349	11.51078933
569.543	11.54978826
569.738	11.58797033
569.932	11.62559161
570.127	11.66758146
570.321	11.7070108
570.515	11.75253974
570.71	11.79750701
570.904	11.8434457
571.098	11.88904844
571.293	11.93804026
571.487	11.98205204
571.681	12.02856722
571.876	12.0762591
572.07	12.12444502
572.264	12.17626968
572.458	12.22885776
572.653	12.2830962
572.847	12.33915871
573.041	12.39622859
573.235	12.45257369
573.43	12.50847557
573.624	12.56804806
573.818	12.63029683
574.012	12.69427169
574.206	12.75922794
574.4	12.82537348
574.594	12.88961695
574.788	12.95723139
574.983	13.02291678
575.177	13.09444851
575.371	13.16478104
575.565	13.23901249
575.759	13.31478184
575.953	13.39256184
576.147	13.47254263
576.341	13.54875439
576.535	13.62919404
576.729	13.70636266
576.923	13.7872732
577.117	13.86980325
577.31	13.95299722
577.504	14.0383686
577.698	14.12530315
577.892	14.21157129
578.086	14.30131601
578.28	14.39080597
578.474	14.48214578
578.668	14.57479985
578.861	14.66721719
579.055	14.76318598
579.249	14.8553136
579.443	14.9504268
579.636	15.04743652
579.83	15.14257137
580.024	15.23730192
580.218	15.33088875
580.411	15.42966023
580.605	15.52519401
580.799	15.62503029
580.992	15.72522828
581.186	15.82625401
581.38	15.9285551
581.573	16.03036917
581.767	16.13131378
581.961	16.23060981
582.154	16.33308879
582.348	16.43399698
582.541	16.53514936
582.735	16.63734157
582.928	16.73919083
583.122	16.84063719
583.315	16.94245081
583.509	17.04558698
583.702	17.14573932
583.896	17.24677001
584.089	17.34713541
584.283	17.44939135
584.476	17.54868072
584.67	17.65071554
584.863	17.7503725
585.056	17.84722603
585.25	17.94376436
585.443	18.03782073
585.636	18.13169339
585.83	18.22584185
586.023	18.32087528
586.216	18.41388445
586.41	18.50594811
586.603	18.5943122
586.796	18.68440128
586.989	18.77165207
587.183	18.86028235
587.376	18.94828754
587.569	19.03191399
587.762	19.11647051
587.955	19.20271181
588.149	19.28410347
588.342	19.3641784
588.535	19.44873308
588.728	19.52713147
588.921	19.60403038
589.114	19.68293987
589.307	19.75851027
589.5	19.83406848
589.693	19.91044507
589.886	19.98473221
590.08	20.05612374
590.273	20.12290262
590.466	20.18956112
590.659	20.25413423
590.852	20.31860198
591.044	20.38429226
591.237	20.44454888
591.43	20.50645362
591.623	20.56397882
591.816	20.62129287
592.009	20.67608183
592.202	20.73549794
592.395	20.78975723
592.588	20.83692243
592.781	20.88424915
592.973	20.93445099
593.166	20.98269462
593.359	21.03121254
593.552	21.07552767
593.745	21.11782612
593.937	21.15889637
594.13	21.19680437
594.323	21.2377071
594.515	21.28048818
594.708	21.32277955
594.901	21.3585023
595.094	21.39253843
595.286	21.43209521
595.479	21.46485472
595.672	21.49884103
595.864	21.52747848
596.057	21.56111113
596.249	21.58993551
596.442	21.62070061
596.635	21.65175126
596.827	21.68179771
597.02	21.70912481
597.212	21.73384973
597.405	21.76049782
597.597	21.78548174
597.79	21.80990726
597.982	21.83852124
598.175	21.86652944
598.367	21.88782966
598.559	21.908418
598.752	21.93007123
598.944	21.95317858
599.137	21.97445017
599.329	21.99029292
599.521	22.01107633
599.714	22.03269861
599.906	22.05717543
600.098	22.07396377
600.291	22.08772157
600.483	22.10739107
600.675	22.12416382
600.868	22.14647494
601.06	22.16276644
601.252	22.18071207
601.444	22.19566416
601.637	22.21463926
601.829	22.23089273
602.021	22.2410307
602.213	22.25380308
602.405	22.26838685
602.597	22.28407584
602.789	22.29556565
602.982	22.31070646
603.174	22.32735197
603.366	22.34277291
603.558	22.35656095
603.75	22.37298342
603.942	22.38371358
604.134	22.39732422
604.326	22.41294444
604.518	22.42780956
604.71	22.44323308
604.902	22.4505872
605.094	22.46344634
605.286	22.47529537
605.478	22.48745853
605.67	22.49709087
605.862	22.50660933
606.054	22.5216718
606.246	22.53520404
606.437	22.54702337
606.629	22.55903696
606.821	22.57291339
607.013	22.58248192
607.205	22.59605344
607.397	22.60920958
607.588	22.62367384
607.78	22.63357171
607.972	22.64687452
608.164	22.65685812
608.355	22.66924162
608.547	22.67526381
608.739	22.68623068
608.93	22.69804637
609.122	22.70736104
609.314	22.72020572
609.505	22.72965992
609.697	22.74092398
609.889	22.75261248
610.08	22.75958057
610.272	22.76960059
610.463	22.78240823
610.655	22.79071847
610.847	22.80045803
611.038	22.80604561
611.23	22.81198981
611.421	22.82015659
611.613	22.82597164
611.804	22.83386783
611.996	22.84544283
612.187	22.85776985
612.379	22.86520049
612.57	22.87673176
612.761	22.88306654
612.953	22.89086227
613.144	22.90225613
613.336	22.90906056
613.527	22.91958943
613.718	22.9278237
613.91	22.93792571
614.101	22.94509223
614.292	22.95605938
614.483	22.96611479
614.675	22.97546315
614.866	22.98510162
615.057	22.99708499
615.248	23.00356168
615.44	23.01040082
615.631	23.01606737
615.822	23.02475121
616.013	23.02898994
616.204	23.03426898
616.396	23.04397745
616.587	23.05082556
616.778	23.05798018
616.969	23.0678216
617.16	23.07840108
617.351	23.08863312
617.542	23.09961896
617.733	23.11227755
617.924	23.11882703
618.115	23.13076602
618.306	23.13867246
618.497	23.14687088
618.688	23.15366641
618.879	23.15706882
619.07	23.16590997
619.261	23.17636947
619.452	23.18493092
619.643	23.19182992
619.834	23.19729977
620.025	23.2035516
620.216	23.21138241
620.407	23.22360953
620.597	23.22950234
620.788	23.23959193
620.979	23.24783149
621.17	23.25423579
621.361	23.26358978
621.551	23.27042766
621.742	23.27571678
621.933	23.28211141
622.124	23.28958339
622.314	23.29295058
622.505	23.29933023
622.696	23.30857315
622.886	23.32052354
623.077	23.32684459
623.268	23.33606989
623.458	23.34226765
623.649	23.35384436
623.84	23.36002259
624.03	23.37042941
624.221	23.38101456
624.411	23.38498612
624.602	23.39695424
624.792	23.40395603
624.983	23.41399872
625.173	23.41958002
625.364	23.42252506
625.554	23.43104277
625.745	23.44193258
625.935	23.45125109
626.126	23.45967792
626.316	23.47006298
626.507	23.47622021
626.697	23.48364133
626.887	23.48995456
627.078	23.49893403
627.268	23.50663664
627.458	23.51538386
627.649	23.52363933
627.839	23.53551071
628.029	23.54082071
628.22	23.54371704
628.41	23.5476936
628.6	23.55056792
628.79	23.55688516
628.981	23.56294342
629.171	23.56933618
629.361	23.57982197
629.551	23.58499663
629.741	23.58514039
629.932	23.5918147
630.122	23.59550019
630.312	23.60241042
630.502	23.60882302
630.692	23.61787972
630.882	23.62778229
631.072	23.63845313
631.262	23.64464092
631.452	23.65178868
631.642	23.66053704
631.832	23.66486188
632.022	23.67460498
632.212	23.68284127
632.402	23.69543657
632.592	23.70331008
632.782	23.71335363
632.972	23.7210664
633.162	23.72816651
633.352	23.73647899
633.542	23.74313482
633.732	23.75449509
633.922	23.76151875
634.111	23.77122413
634.301	23.77582755
634.491	23.78676255
634.681	23.79600368
634.871	23.80189774
635.06	23.80769146
635.25	23.81476125
635.44	23.8241991
635.63	23.82769663
635.819	23.83826891
636.009	23.84232294
636.199	23.85159284
636.388	23.85971589
636.578	23.87150134
636.768	23.87505459
636.957	23.88249982
637.147	23.89034309
637.337	23.8942079
637.526	23.90011312
637.716	23.91177084
637.905	23.92055926
638.095	23.92873247
638.284	23.93602219
638.474	23.93834865
638.663	23.94616545
638.853	23.95433597
639.042	23.96577411
639.232	23.97611192
639.421	23.98191253
639.611	23.99319858
639.8	24.001826
639.99	24.01483549
640.179	24.01991326
640.368	24.02227046
640.558	24.02758175
640.747	24.03599989
640.936	24.04372469
641.126	24.05028356
641.315	24.05804867
641.504	24.0665452
641.694	24.06798556
641.883	24.07671607
642.072	24.08142627
642.261	24.08994086
642.451	24.10306439
642.64	24.10311271
642.829	24.10834908
643.018	24.11026414
643.207	24.1133937
643.397	24.11872028
643.586	24.12088541
643.775	24.1256987
643.964	24.13185914
644.153	24.14131662
644.342	24.15188945
644.531	24.16006015
644.72	24.17006394
644.909	24.17635303
645.098	24.18621189
645.287	24.19578402
645.476	24.207625
645.665	24.21654954
645.854	24.22231274
646.043	24.23214315
646.232	24.23957629
646.421	24.24686497
646.61	24.256095
646.799	24.26361059
646.988	24.272088
647.177	24.27808083
647.365	24.28563221
647.554	24.29884274
647.743	24.30844817
647.932	24.3145233
648.121	24.31876974
648.309	24.32340054
648.498	24.33009346
648.687	24.33335072
648.876	24.33924065
649.064	24.34591973
649.253	24.35501385
649.442	24.35972359
649.63	24.36642014
649.819	24.37332271
650.008	24.38231711
650.196	24.3964388
650.385	24.39863739
650.574	24.40472538
650.762	24.41740073
650.951	24.42267737
651.139	24.43199579
651.328	24.44469819
651.516	24.44987601
651.705	24.45968775
651.893	24.46376182
652.082	24.47384079
652.27	24.48214625
652.459	24.49085576
652.647	24.50453498
652.836	24.5150823
653.024	24.52558673
653.213	24.5325623
653.401	24.54119329
653.589	24.54823496
653.778	24.55741947
653.966	24.56488204
654.154	24.56550176
654.343	24.57583085
654.531	24.58641408
654.719	24.59245212
654.908	24.60045676
655.096	24.60944969
655.284	24.61711317
655.472	24.63028355
655.661	24.6385402
655.849	24.64629986
656.037	24.65803296
656.225	24.67045698
656.413	24.68022248
656.601	24.68703344
656.79	24.69515824
656.978	24.69984627
657.166	24.71070794
657.354	24.7171183
657.542	24.72713789
657.73	24.73472994
657.918	24.74544649
658.106	24.76082878
658.294	24.77246694
658.482	24.77966265
658.67	24.78589142
658.858	24.79262265
659.046	24.80038983
659.234	24.81018424
659.422	24.81171463
659.61	24.82092606
659.798	24.83792787
659.986	24.84537517
660.173	24.8484331
660.361	24.85859831
660.549	24.86890854
660.737	24.87692133
660.925	24.88373081
661.113	24.88817165
661.3	24.89248165
661.488	24.9027293
661.676	24.91163573
661.864	24.91864168
662.051	24.92826606
662.239	24.93772929
662.427	24.94734958
662.614	24.95264224
662.802	24.96349187
662.99	24.97251841
663.177	24.98189203
663.365	24.99272831
663.553	24.99697435
663.74	24.9982477
663.928	25.00850179
664.115	25.0163754
664.303	25.01901672
664.49	25.02223511
664.678	25.02462669
664.866	25.03682951
665.053	25.04580117
665.24	25.06192284
665.428	25.06618547
665.615	25.07802011
665.803	25.08575333
665.99	25.08766179
666.178	25.09466104
666.365	25.10427657
666.552	25.11679076
666.74	25.12496482
666.927	25.13062215
667.114	25.13520935
667.302	25.13856468
667.489	25.14651367
667.676	25.16001818
667.864	25.16653263
668.051	25.17923206
668.238	25.19009316
668.425	25.1968037
668.613	25.21621827
668.8	25.22372807
668.987	25.23130665
669.174	25.2372169
669.361	25.24852379
669.548	25.25417967
669.736	25.2684501
669.923	25.27901248
670.11	25.28588969
670.297	25.29804479
670.484	25.31397785
670.671	25.32941109
670.858	25.34265944
671.045	25.35569237
671.232	25.37566459
671.419	25.38591683
671.606	25.39696881
671.793	25.40378634
671.98	25.4111963
672.167	25.42432489
672.354	25.44266983
672.541	25.44614117
672.728	25.45178159
672.915	25.46611336
673.101	25.47494766
673.288	25.48496936
673.475	25.501106
673.662	25.50809818
673.849	25.52238344
674.035	25.53614162
674.222	25.54868222
674.409	25.55604097
674.596	25.56132931
674.783	25.57443819
674.969	25.58624302
675.156	25.5926289
675.343	25.60613833
675.529	25.61585813
675.716	25.63319457
675.903	25.64304423
676.089	25.65546032
676.276	25.66842107
676.462	25.68519448
676.649	25.70756344
676.836	25.72156779
677.022	25.74069991
677.209	25.76106546
677.395	25.77748764
677.582	25.78844835
677.768	25.79985654
677.955	25.81483766
678.141	25.82445947
678.328	25.83623353
678.514	25.85460397
678.701	25.8741478
678.887	25.88226357
679.073	25.89413467
679.26	25.90950708
679.446	25.92206818
679.632	25.93173752
679.819	25.95398672
680.005	25.96597576
680.191	25.9756954
680.378	25.98540481
680.564	25.99986369
680.75	26.01074859
680.936	26.01866299
681.123	26.03280804
681.309	26.04103181
681.495	26.06108254
681.681	26.07847538
681.867	26.09423478
682.054	26.11334684
682.24	26.1295561
682.426	26.14403088
682.612	26.15460252
682.798	26.17757134
682.984	26.20210548
683.17	26.22440392
683.356	26.2473028
683.542	26.26683425
683.728	26.28086177
683.914	26.30033545
684.1	26.32405873
684.286	26.34776934
684.472	26.37065512
684.658	26.3935757
684.844	26.41331878
685.03	26.43379936
685.216	26.45282056
685.402	26.47339191
685.588	26.49163999
685.774	26.51542705
685.96	26.53409649
686.145	26.5568087
686.331	26.57688752
686.517	26.5951414
686.703	26.6133704
686.889	26.62688234
687.074	26.64206224
687.26	26.66461885
687.446	26.69415088
687.631	26.71411643
687.817	26.73658561
688.003	26.75701873
688.189	26.77930408
688.374	26.80433806
688.56	26.82712392
688.745	26.85664105
688.931	26.8811832
689.117	26.90439672
689.302	26.92967584
689.488	26.95352852
689.673	26.96700911
689.859	26.99073995
690.044	27.00665186
690.23	27.02911252
690.415	27.05760325
690.601	27.08438068
690.786	27.12092477
690.972	27.1455435
691.157	27.16646431
691.343	27.18427837
691.528	27.21625234
691.713	27.24346721
691.899	27.27061584
692.084	27.29070939
692.269	27.30934639
692.455	27.33401371
692.64	27.35453036
692.825	27.3742975
693.011	27.39851077
693.196	27.42015915
693.381	27.44540014
693.566	27.47329922
693.752	27.49695795
693.937	27.53357509
694.122	27.55943108
694.307	27.58220831
694.492	27.60553341
694.678	27.62167449
694.863	27.64792238
695.048	27.67640918
695.233	27.7004367
695.418	27.72455392
695.603	27.75036824
695.788	27.77062965
695.973	27.79673857
696.158	27.81996707
696.343	27.83990173
696.528	27.87124162
696.713	27.90147198
696.898	27.92975497
697.083	27.95461479
697.268	27.98129021
697.453	28.00866355
697.638	28.03859972
697.823	28.05782417
698.008	28.08156169
698.192	28.10459941
698.377	28.12908136
698.562	28.15445131
698.747	28.17654439
698.932	28.19757479
699.117	28.22360011
699.301	28.24216612
699.486	28.25990606
699.671	28.28576442
699.856	28.30965962
700.04	28.33252817
700.225	28.36235683
700.41	28.37826866
700.594	28.3980104
700.779	28.42032188
700.964	28.45145398
701.148	28.47377748
701.333	28.50108848
701.517	28.52440377
701.702	28.55400815
701.887	28.58286627
702.071	28.60293742
702.256	28.62577432
702.44	28.65074331
702.625	28.67526455
702.809	28.70037146
702.994	28.7235257
703.178	28.75607888
703.362	28.79071927
703.547	28.81551692
703.731	28.84148017
703.916	28.86791566
704.1	28.89543355
704.284	28.91940351
704.469	28.94082903
704.653	28.96439216
704.837	28.98079874
705.022	29.00617276
705.206	29.03024481
705.39	29.0549603
705.575	29.07191476
705.759	29.09400086
705.943	29.12069562
706.127	29.14286971
706.311	29.16200906
706.496	29.18448471
706.68	29.20961565
706.864	29.232439
707.048	29.24865995
707.232	29.26349966
707.416	29.28741216
707.6	29.30707485
707.785	29.32916966
707.969	29.34457113
708.153	29.3706324
708.337	29.39197132
708.521	29.41609906
708.705	29.43881746
708.889	29.45407084
709.073	29.4739152
709.257	29.49366668
709.441	29.51907755
709.624	29.54331514
709.808	29.56692603
709.992	29.59744665
710.176	29.6232466
710.36	29.64151306
710.544	29.65043147
710.728	29.67559749
710.912	29.70345517
711.095	29.73420272
711.279	29.75744653
711.463	29.78616121
711.647	29.80936674
711.83	29.83462358
712.014	29.85742067
712.198	29.88628075
712.382	29.90338599
712.565	29.92820241
712.749	29.95775827
712.933	29.97665798
713.116	30.00482025
713.3	30.03185402
713.483	30.04729329
713.667	30.06779256
713.851	30.0771089
714.034	30.10354871
714.218	30.13311845
714.401	30.16606208
714.585	30.18255232
714.768	30.20081147
714.952	30.21176063
715.135	30.22893646
715.319	30.24800026
715.502	30.26290487
715.686	30.28603753
715.869	30.31285199
716.052	30.33532497
716.236	30.3662161
716.419	30.38614496
716.602	30.40595979
716.786	30.43013489
716.969	30.44479886
717.152	30.45656198
717.336	30.48108225
717.519	30.50812124
717.702	30.53270902
717.885	30.54649806
718.069	30.56731501
718.252	30.59685037
718.435	30.62258564
718.618	30.63911666
718.801	30.6651102
718.985	30.68808326
719.168	30.71218352
719.351	30.73387298
719.534	30.7521576
719.717	30.76414164
719.9	30.77663004
720.083	30.78771522
720.266	30.80514052
720.449	30.82812768
720.632	30.84688211
720.815	30.87149936
720.998	30.90144591
721.181	30.92130593
721.364	30.93940946
721.547	30.96173236
721.73	30.99060211
721.913	31.01237578
722.096	31.02267047
722.279	31.04363281
722.461	31.06539094
722.644	31.08226305
722.827	31.09914391
723.01	31.10893531
723.193	31.12645808
723.376	31.1374649
723.558	31.15241821
723.741	31.17353418
723.924	31.1934839
724.107	31.20189163
724.289	31.21093915
724.472	31.22424109
724.655	31.23757918
724.837	31.24838756
725.02	31.26212742
725.203	31.27030208
725.385	31.28542192
725.568	31.28885237
725.75	31.29596061
725.933	31.307043
726.115	31.31633326
726.298	31.33213846
726.481	31.34511721
726.663	31.36195347
726.845	31.37514642
727.028	31.3994729
727.21	31.41675593
727.393	31.43103648
727.575	31.44047701
727.758	31.45599028
727.94	31.47864326
728.122	31.49028497
728.305	31.5107094
728.487	31.51476831
728.67	31.52366222
728.852	31.52922963
729.034	31.54585083
729.216	31.55589893
729.399	31.57055977
729.581	31.58711572
729.763	31.6016649
729.945	31.61138787
730.128	31.62520073
730.31	31.63580222
730.492	31.64387467
730.674	31.65123893
730.856	31.65794597
731.039	31.6660413
731.221	31.6761922
731.403	31.68878259
731.585	31.70269634
731.767	31.7136588
731.949	31.72730186
732.131	31.730109
732.313	31.74257977
732.495	31.75323337
732.677	31.76972212
732.859	31.77556011
733.041	31.78751433
733.223	31.79635776
733.405	31.80127406
733.587	31.80983581
733.769	31.83435259
733.951	31.83617468
734.132	31.84672791
734.314	31.86306799
734.496	31.87815314
734.678	31.88472901
734.86	31.89332439
735.042	31.90250489
735.223	31.91474714
735.405	31.92316338
735.587	31.92599689
735.769	31.9309651
735.95	31.94207613
736.132	31.95576065
736.314	31.96734852
736.495	31.98035894
736.677	31.99862855
736.859	32.00096157
737.04	32.01426479
737.222	32.0259622
737.403	32.03556066
737.585	32.03583458
737.767	32.04742847
737.948	32.05508788
738.13	32.05802055
738.311	32.06963743
738.493	32.07555095
738.674	32.08791843
738.856	32.09854894
739.037	32.10992925
739.219	32.11341704
739.4	32.12963382
739.581	32.13815252
739.763	32.15295666
739.944	32.15808972
740.125	32.162746
740.307	32.17183734
740.488	32.17131001
740.669	32.18164366
740.851	32.18634241
741.032	32.19953897
741.213	32.20734796
741.395	32.21599988
741.576	32.23073678
741.757	32.23738189
741.938	32.24615139
742.119	32.24892747
742.301	32.26228466
742.482	32.27617777
742.663	32.29072896
742.844	32.28881768
743.025	32.30039956
743.206	32.30476096
743.387	32.32024068
743.568	32.33078532
743.749	32.348769
743.93	32.35736061
744.111	32.35622555
744.292	32.36583664
744.473	32.38715821
744.654	32.39753751
744.835	32.4012516
745.016	32.4112514
745.197	32.41974722
745.378	32.42531862
745.559	32.43696399
745.74	32.44670804
745.921	32.46683825
746.102	32.47920039
746.282	32.47814891
746.463	32.4887989
746.644	32.50771027
746.825	32.51592336
747.006	32.5277746
747.186	32.54465919
747.367	32.54403925
747.548	32.5477048
747.728	32.56477759
747.909	32.58305099
748.09	32.59666126
748.27	32.60406146
748.451	32.61598902
748.632	32.62848391
748.812	32.64160266
748.993	32.65094505
749.173	32.65933629
749.354	32.67665588
749.535	32.68777922
749.715	32.69495191
749.896	32.70301197
750.076	32.72246361
750.257	32.72779945
750.437	32.73734309
750.618	32.74893059
750.798	32.7644342
750.978	32.76658938
751.159	32.7799883
751.339	32.79173585
751.52	32.80037006
751.7	32.8119644
751.88	32.82268604
752.061	32.82850603
752.241	32.84875533
752.421	32.8576593
752.601	32.86606367
752.782	32.8826315
752.962	32.89748372
753.142	32.90468221
753.322	32.91379043
753.503	32.9240801
753.683	32.92906016
753.863	32.93353309
754.043	32.94563626
754.223	32.95145476
754.403	32.9668059
754.583	32.97211906
754.764	32.97819652
754.944	32.99379772
755.124	33.00474507
755.304	33.01562915
755.484	33.03048054
755.664	33.04815788
755.844	33.06225569
756.024	33.05633827
756.204	33.07152394
756.384	33.09125215
756.564	33.09436459
756.743	33.11319126
756.923	33.12445326
757.103	33.14637203
757.283	33.16268762
757.463	33.19124125
757.643	33.20985363
757.823	33.22675295
758.002	33.25343772
758.182	33.26950754
758.362	33.28274105
758.542	33.29679231
758.721	33.30873954
758.901	33.32169288
759.081	33.34591467
759.261	33.36468005
759.44	33.38791847
759.62	33.39799753
759.8	33.41604323
759.979	33.43078204
760.159	33.44656703
760.338	33.4566673
760.518	33.46750992
760.698	33.47449763
760.877	33.47204622
761.057	33.48122093
761.236	33.48540101
761.416	33.49810093
761.595	33.51148083
761.775	33.51537967
761.954	33.51716401
762.133	33.52748809
762.313	33.54038617
762.492	33.54730345
762.672	33.5576577
762.851	33.55728769
763.03	33.56022521
763.21	33.5560115
763.389	33.56157733
763.568	33.56977331
763.748	33.58158927
763.927	33.59212438
764.106	33.60056798
764.286	33.59842543
764.465	33.61696413
764.644	33.63394121
764.823	33.64399566
765.002	33.65098918
765.182	33.65551001
765.361	33.65635401
765.54	33.664248
765.719	33.67743176
765.898	33.68009943
766.077	33.69078609
766.256	33.70271127
766.435	33.70883864
766.614	33.71739225
766.793	33.72682829
766.972	33.73958465
767.151	33.75162955
767.33	33.75629144
767.509	33.76022947
767.688	33.76114872
767.867	33.76604534
768.046	33.77776153
768.225	33.78059378
768.404	33.78707762
768.583	33.78836736
768.762	33.80090568
768.94	33.8157545
769.119	33.82602237
769.298	33.83163544
769.477	33.84038554
769.656	33.85520697
769.834	33.86063101
770.013	33.86973418
770.192	33.87692915
770.37	33.88885521
770.549	33.88948486
770.728	33.90340801
770.906	33.91048679
771.085	33.92519577
771.264	33.9347865
771.442	33.94409947
771.621	33.96344885
771.799	33.96900639
771.978	33.97731628
772.157	33.97825309
772.335	33.98226172
772.514	33.98557768
772.692	33.99426187
772.871	34.00262487
773.049	34.01371219
773.228	34.02901344
773.406	34.04311446
773.584	34.05425633
773.763	34.05534925
773.941	34.06371493
774.119	34.07389351
774.298	34.09211499
774.476	34.08984358
774.655	34.09658912
774.833	34.1108279
775.011	34.11415917
775.189	34.12414245
775.368	34.13325065
775.546	34.15048969
775.724	34.15504505
775.902	34.17507814
776.08	34.20186717
776.259	34.20938639
776.437	34.21760615
776.615	34.21950174
776.793	34.23212136
776.971	34.23139153
777.149	34.2314652
777.327	34.24247268
777.505	34.25224813
777.683	34.26953174
777.861	34.26831695
778.04	34.28403667
778.218	34.29699061
778.395	34.30913254
778.573	34.30868395
778.751	34.32430081
778.929	34.33338088
779.107	34.33907946
779.285	34.35035996
779.463	34.37358723
779.641	34.37682589
779.819	34.37316676
779.997	34.39138206
780.174	34.39984147
780.352	34.41422133
780.53	34.42036277
780.708	34.42616238
780.886	34.4402351
781.063	34.44438855
781.241	34.46239424
781.419	34.47632954
781.596	34.49120031
781.774	34.4941757
781.952	34.50077002
782.129	34.51757188
782.307	34.52671554
782.485	34.5249068
782.662	34.53484509
782.84	34.54773282
783.017	34.54862769
783.195	34.54630042
783.372	34.55840815
783.55	34.57986942
783.727	34.58684989
783.905	34.59190526
784.082	34.60766984
784.26	34.61380984
784.437	34.62374456
784.615	34.62712903
784.792	34.63751286
784.969	34.64600999
785.147	34.6499308
785.324	34.65348676
785.501	34.66304628
785.679	34.67006025
785.856	34.66905092
786.033	34.67536076
786.211	34.70197411
786.388	34.70836091
786.565	34.72034821
786.742	34.7178401
786.92	34.73429819
787.097	34.74169661
787.274	34.73765971
787.451	34.74353254
787.628	34.75183683
787.805	34.74919645
787.982	34.76092179
788.16	34.76623645
788.337	34.78186435
788.514	34.79741578
788.691	34.7923917
788.868	34.78036651
789.045	34.80142749
789.222	34.80250783
789.399	34.80822028
789.576	34.82497687
789.753	34.83122897
789.93	34.82355778
790.106	34.82859653
790.283	34.82495779
790.46	34.85083431
790.637	34.84407925
790.814	34.87029193
790.991	34.88420016
791.168	34.8843032
791.344	34.89471378
791.521	34.91246094
791.698	34.92112584
791.875	34.93654619
792.051	34.94285611
792.228	34.94244363
792.405	34.95761967
792.581	34.97844755
792.758	34.97800657
792.935	34.98173978
793.111	34.99287514
793.288	34.98238039
793.465	35.00230275
793.641	35.01412774
793.818	35.02939607
793.994	35.04199147
794.171	35.04488224
794.347	35.06054897
794.524	35.04227453
794.7	35.05915531
794.877	35.07471634
795.053	35.07329894
795.23	35.07453859
795.406	35.08697642
795.583	35.08771899
795.759	35.09188216
795.935	35.09574417
796.112	35.10550784
796.288	35.09827316
796.464	35.11062853
796.641	35.12582228
796.817	35.14517273
796.993	35.16816643
797.169	35.16834544
797.346	35.17762563
797.522	35.17164171
797.698	35.1790654
797.874	35.18817505
798.051	35.18045611
798.227	35.19215593
798.403	35.19797683
798.579	35.20597196
798.755	35.2264311
798.931	35.24355044
799.107	35.24860619
799.283	35.25451407
799.459	35.25202379
799.635	35.26364788
799.811	35.27705368
799.987	35.3095898
800.163	35.31074242
800.339	35.31750686
800.515	35.31384634
800.691	35.31162134
800.867	35.31686496
801.043	35.32754165
801.219	35.34849046
801.395	35.34784016
801.571	35.34178682
801.746	35.36116401
801.922	35.3731727
802.098	35.36520051
802.274	35.36724707
802.45	35.35401693
802.625	35.35425082
802.801	35.33998171
802.977	35.34462052
803.152	35.36380774
803.328	35.37072227
803.504	35.36599495
803.679	35.36063367
803.855	35.34673393
804.031	35.34622341
804.206	35.35331438
804.382	35.37612492
804.557	35.39790012
804.733	35.40181936
804.909	35.39677225
805.084	35.38700939
805.26	35.3774383
805.435	35.38926111
805.61	35.40381979
805.786	35.40874938
805.961	35.43025857
806.137	35.44171649
806.312	35.44604743
806.488	35.45659413
806.663	35.45012672
806.838	35.44611855
807.014	35.44848213
807.189	35.44446459
807.364	35.43817651
807.54	35.46014197
807.715	35.47362963
807.89	35.48536978
808.065	35.46367449
808.241	35.46435729
808.416	35.4476396
808.591	35.44769985
808.766	35.48836465
808.941	35.51456468
809.116	35.5143633
809.291	35.51025772
809.467	35.51298393
809.642	35.48819895
809.817	35.49428141
809.992	35.49812927
810.167	35.50252733
810.342	35.52243305
810.517	35.51086562
810.692	35.53064204
810.867	35.53941099
811.042	35.55925757
811.217	35.57455431
811.392	35.5658447
811.567	35.56380431
811.741	35.57690822
811.916	35.56569326
812.091	35.58803157
812.266	35.58896617
812.441	35.58195132
812.616	35.59848232
812.79	35.60747137
812.965	35.60370685
813.14	35.62633598
813.315	35.64804937
813.489	35.65292409
813.664	35.67168828
813.839	35.68130126
814.013	35.68152213
814.188	35.70768381
814.363	35.68864352
814.537	35.69396829
814.712	35.70407999
814.887	35.68677797
815.061	35.69611344
815.236	35.70417535
815.41	35.69404236
815.585	35.68713372
815.759	35.7074648
815.934	35.74184891
816.108	35.71596628
816.283	35.71729951
816.457	35.71372985
816.631	35.74208876
816.806	35.71685508
816.98	35.68543098
817.155	35.68398821
817.329	35.6577668
817.503	35.66597349
817.678	35.66639045
817.852	35.68146547
818.026	35.71225439
818.201	35.71777733
818.375	35.70301757
818.549	35.73376552
818.723	35.73445478
818.897	35.70016542
819.072	35.74282217
819.246	35.75595114
819.42	35.7566142
819.594	35.73825054
819.768	35.76161998
819.942	35.75866045
820.116	35.76217384
820.29	35.74771952
820.465	35.75067555
820.639	35.79059038
820.813	35.81352086
820.987	35.83288807
821.161	35.84895936
821.335	35.85809225
821.509	35.82925012
821.682	35.83689876
821.856	35.85587736
822.03	35.87746924
822.204	35.86335554
822.378	35.88025941
822.552	35.91447408
822.726	35.91043808
822.9	35.93180939
823.073	35.93356611
823.247	35.93131641
823.421	35.96115931
823.595	35.99048879
823.768	35.99730648
823.942	35.98183571
824.116	35.98431688
824.289	35.99975417
824.463	35.99169291
824.637	35.99661961
824.81	35.98586396
824.984	36.01864805
825.158	36.02804962
825.331	36.00135526
825.505	36.01485819
825.678	36.04394335
825.852	36.05900271
826.025	36.06194755
826.199	36.06945041
826.372	36.05466426
826.546	36.06443586
826.719	36.05992949
826.893	36.08814086
827.066	36.06704495
827.24	36.04454159
827.413	36.07774469
827.586	36.0740426
827.76	36.0819474
827.933	36.07866172
828.106	36.09952122
828.28	36.10730231
828.453	36.1180516
828.626	36.0862353
828.799	36.13875667
828.973	36.1547137
829.146	36.134793
829.319	36.11366159
829.492	36.08714699
829.665	36.09106358
829.839	36.12359667
830.012	36.1426916
830.185	36.12730194
830.358	36.12882794
830.531	36.13321552
830.704	36.11710917
830.877	36.13932776
831.05	36.12187862
831.223	36.16795059
831.396	36.17549116
831.569	36.17175025
831.742	36.1226218
831.915	36.14424032
832.088	36.15254749
832.261	36.1947176
832.434	36.18015831
832.607	36.21261587
832.779	36.19920134
832.952	36.18058596
833.125	36.20261263
833.298	36.19762498
833.471	36.19157429
833.643	36.19418667
833.816	36.20470557
833.989	36.21501862
834.162	36.20352872
834.334	36.24252016
834.507	36.22352218
834.68	36.21689586
834.852	36.20030777
835.025	36.20356878
835.198	36.20591484
835.37	36.25199395
835.543	36.2411254
835.715	36.22638945
835.888	36.2123595
836.061	36.21054189
836.233	36.18047785
836.406	36.19757076
836.578	36.23491758
836.751	36.23202075
836.923	36.24309176
837.095	36.21443825
837.268	36.2130981
837.44	36.21226938
837.613	36.22639295
837.785	36.24089545
837.957	36.23005488
838.13	36.2463534
838.302	36.2642467
838.474	36.29776804
838.647	36.31532711
838.819	36.32031588
838.991	36.31799446
839.163	36.32720943
839.336	36.33770903
839.508	36.3200101
839.68	36.31188692
839.852	36.31748885
840.024	36.35978451
840.196	36.35003795
840.368	36.36361793
840.541	36.37275305
840.713	36.39361934
840.885	36.40398205
841.057	36.38677373
841.229	36.39207072
841.401	36.37267262
841.573	36.37778305
841.745	36.37800718
841.917	36.3641174
842.089	36.31807171
842.261	36.29393305
842.432	36.24787422
842.604	36.27998335
842.776	36.29718473
842.948	36.30650877
843.12	36.31675914
843.292	36.32557334
843.464	36.35521332
843.635	36.32312217
843.807	36.31765266
843.979	36.33995892
844.151	36.34170568
844.322	36.28321931
844.494	36.29883324
844.666	36.28558793
844.837	36.26430415
845.009	36.2686807
845.181	36.25871553
845.352	36.27163448
845.524	36.29786983
845.695	36.34209615
845.867	36.36105976
846.039	36.44412584
846.21	36.3663407
846.382	36.31581913
846.553	36.2954493
846.725	36.31009039
846.896	36.28732795
847.068	36.22238077
847.239	36.22599601
847.41	36.2232069
847.582	36.2175106
847.753	36.17211756
847.925	36.23308627
848.096	36.23783739
848.267	36.27293777
848.439	36.29235873
848.61	36.28097857
848.781	36.3339913
848.952	36.33120883
849.124	36.33087986
849.295	36.27958771
849.466	36.26367079
849.637	36.20122514
849.808	36.29101733
849.98	36.2808825
850.151	36.2770957
850.322	36.2848352
850.493	36.30568653
850.664	36.36894811
850.835	36.38164003
851.006	36.35702013
851.177	36.3421358
851.348	36.3636994
851.519	36.35227058
851.69	36.29998933
851.861	36.36348169
852.032	36.34544326
852.203	36.35271361
852.374	36.34571473
852.545	36.36501497
852.716	36.34362789
852.887	36.37676913
853.057	36.39417658
853.228	36.43005688
853.399	36.41024407
853.57	36.45326052
853.741	36.45795758
853.911	36.47187263
854.082	36.45201136
854.253	36.42098266
854.424	36.4510413
854.594	36.53869753
854.765	36.59103774
854.936	36.60134738
855.106	36.59145266
855.277	36.62085529
855.447	36.5655892
855.618	36.61408816
855.789	36.59838807
855.959	36.57300226
856.13	36.60076547
856.3	36.60426454
856.471	36.53273307
856.641	36.50290241
856.812	36.50709947
856.982	36.47744812
857.153	36.51301527
857.323	36.56002509
857.493	36.51970047
857.664	36.56253009
857.834	36.5676883
858.004	36.45663843
858.175	36.44695406
858.345	36.36357803
858.515	36.33343831
858.686	36.34778762
858.856	36.42984627
859.026	36.42021489
859.196	36.30149635
859.367	36.38154085
859.537	36.35889389
859.707	36.30334367
859.877	36.33000334
860.047	36.39600028
860.217	36.43954581
860.387	36.40383713
860.558	36.42936788
860.728	36.31896701
860.898	36.26725874
861.068	36.27666704
861.238	36.24767586
861.408	36.15341196
861.578	36.17796109
861.748	36.10138655
861.918	36.21033726
862.088	36.25776166
862.257	36.2452414
862.427	36.08239822
862.597	36.09816029
862.767	36.21977975
862.937	36.16238072
863.107	36.12997683
863.277	36.07815868
863.446	36.09967781
863.616	36.13497351
863.786	36.18047814
863.956	36.13395618
864.125	36.11785919
864.295	36.12754235
864.465	36.13363824
864.634	36.0978975
864.804	36.11107975
864.974	36.12134175
865.143	36.19517727
865.313	36.16517592
865.482	36.10156346
865.652	36.04254985
865.822	35.98572523
865.991	36.01234744
866.161	36.06225542
866.33	36.03096812
866.5	36.09552073
866.669	36.12866561
866.838	36.12216836
867.008	36.02610714
867.177	36.00711509
867.347	36.00316262
867.516	36.09090214
867.685	36.07371739
867.855	36.12566412
868.024	36.12259184
868.193	36.21872535
868.363	36.24998818
868.532	36.33204163
868.701	36.28727031
868.87	36.26950516
869.04	36.24323893
869.209	36.23671647
869.378	36.35595362
869.547	36.37595817
869.716	36.26409282
869.885	36.28533511
870.055	36.19811964
870.224	36.31019758
870.393	36.34960626
870.562	36.38964637
870.731	36.28813355
870.9	36.2036907
871.069	36.19598611
871.238	36.18928196
871.407	36.22863337
871.576	36.25452771
871.745	36.21154449
871.914	36.07329545
872.083	36.07083459
872.251	36.12664477
872.42	36.15151175
872.589	35.9743463
872.758	35.93101428
872.927	35.8645973
873.096	35.86240371
873.264	35.85968905
873.433	35.85885555
873.602	35.80868576
873.771	35.69020013
873.939	35.6163322
874.108	35.56927
874.277	35.60851014
874.445	35.52704577
874.614	35.4880835
874.783	35.49705496
874.951	35.44637632
875.12	35.35972305
875.288	35.3717767
875.457	35.55864087
875.625	35.3494872
875.794	35.16853549
875.962	35.13993675
876.131	35.42406207
876.299	35.31470675
876.468	35.30108191
876.636	35.22553238
876.805	35.25048201
876.973	35.03629816
877.141	35.18040241
877.31	35.09552742
877.478	35.23231601
877.647	35.33944769
877.815	35.09341147
877.983	35.13711047
878.151	35.06888804
878.32	35.15319898
878.488	35.02576304
878.656	35.09699657
878.824	35.0671131
878.992	35.03615107
879.161	35.20228227
879.329	35.29433214
879.497	35.22030493
879.665	35.10931064
879.833	35.24984547
880.001	35.1614743
880.169	35.09058711
880.337	35.09677049
880.505	35.22783218
880.673	35.08803274
880.841	35.12233674
881.009	35.08890389
881.177	34.77868112
881.345	35.13904204
881.513	35.17704439
881.681	35.13583786
881.849	35.08207906
882.017	35.18708853
882.185	35.11001676
882.352	35.01628492
882.52	34.69355034
882.688	34.66969718
882.856	34.66573478
883.024	34.75263792
883.191	34.74290567
883.359	34.51329746
883.527	34.50961937
883.694	34.67012672
883.862	34.55167074
884.03	34.53769911
884.197	34.37325186
884.365	34.43465752
884.533	34.28866799
884.7	34.38159925
884.868	34.2493197
885.035	34.14620163
885.203	33.96955397
885.37	33.82891621
885.538	33.69940707
885.705	33.67096711
885.873	33.66503053
886.04	33.83915474
886.208	33.80307829
886.375	33.68577788
886.542	33.60312177
886.71	33.38998293
886.877	33.85479854
