Data from printrosa_Reflection_00001.txt Node
Date: Thu Apr 11 13:55:10 AEST 2024
User: uqkchene_local
Spectrometer: USB4E02642
Trigger mode: 4
Integration Time (sec): 2.541000E-2
Scans to average: 101
Electric dark correction enabled: true
Nonlinearity correction enabled: false
Boxcar width: 10
XAxis mode: Wavelengths
Number of Pixels in Spectrum: 3648
>>>>>Begin Spectral Data<<<<<
179.217	73.23221726
179.432	83.70820669
179.647	91.81331085
179.862	79.90499055
180.077	88.86406883
180.293	86.6064092
180.508	82.93246871
180.723	76.6004415
180.938	71.70051425
181.153	69.68533087
181.368	67.77116964
181.583	65.65440833
181.798	68.86899886
182.013	67.74148102
182.228	66.13383072
182.443	65.53683894
182.658	66.67732045
182.873	67.8933265
183.088	68.34932475
183.303	65.85549086
183.518	65.54104832
183.733	64.85647259
183.948	63.36658515
184.162	62.52224155
184.377	64.09721393
184.592	63.9273341
184.807	64.37293087
185.022	64.5926952
185.237	65.17234529
185.452	64.51165861
185.667	64.39869344
185.882	64.72009952
186.096	65.13050142
186.311	63.99877891
186.526	63.66710992
186.741	63.78391754
186.956	62.33700169
187.17	62.55288238
187.385	61.66727023
187.6	61.26015107
187.815	62.30261313
188.03	62.19859356
188.244	62.25161182
188.459	61.67454092
188.674	62.1331362
188.889	60.70280428
189.103	61.00685306
189.318	60.7936959
189.533	60.75165361
189.747	59.62219356
189.962	59.5978952
190.177	59.6639087
190.391	59.86540569
190.606	60.07855906
190.821	59.91286522
191.035	61.15642982
191.25	61.4315227
191.465	60.89612822
191.679	60.35369725
191.894	59.83057192
192.109	59.28538136
192.323	59.12156798
192.538	59.35422896
192.752	59.91269171
192.967	59.9366472
193.181	59.81181055
193.396	61.21903349
193.611	60.22846805
193.825	60.46353589
194.04	59.36518635
194.254	60.15431642
194.469	60.50231234
194.683	60.77128953
194.898	60.43162875
195.112	59.53741567
195.327	59.45705408
195.541	59.30957856
195.756	58.97385421
195.97	61.40832237
196.184	61.78768889
196.399	62.84538446
196.613	63.87976134
196.828	63.82713301
197.042	64.68386633
197.257	64.80257066
197.471	65.30718387
197.685	65.56491379
197.9	65.15868674
198.114	65.22487305
198.328	64.46519769
198.543	64.72018365
198.757	64.03861179
198.971	63.80049991
199.186	64.06400712
199.4	63.08439527
199.614	62.30509588
199.829	62.16080232
200.043	61.9064656
200.257	60.70367588
200.471	59.20327577
200.686	59.62240539
200.9	59.39071734
201.114	59.30972645
201.328	59.83581203
201.543	58.06405099
201.757	57.15603053
201.971	56.64651286
202.185	56.24633666
202.399	55.55770317
202.614	55.13022423
202.828	55.60625452
203.042	57.15757883
203.256	57.78551525
203.47	58.11443361
203.684	57.56245246
203.899	57.82197541
204.113	59.01794145
204.327	59.24246548
204.541	58.80172851
204.755	59.75034912
204.969	60.90235399
205.183	60.44871572
205.397	60.51514419
205.611	59.35015249
205.825	58.84402441
206.039	59.32281121
206.253	59.92941853
206.467	60.56155907
206.681	60.42476774
206.895	60.53103181
207.109	60.92309012
207.323	61.06974536
207.537	60.5940074
207.751	60.55323028
207.965	60.80603491
208.179	60.58235407
208.393	60.60791924
208.607	59.7021705
208.821	59.96966477
209.035	59.91149496
209.249	59.7508816
209.463	59.09811035
209.677	58.67734971
209.891	57.96969178
210.104	58.267433
210.318	57.91621163
210.532	57.65270946
210.746	57.24840998
210.96	57.46493374
211.174	57.97082161
211.387	57.7759967
211.601	58.10266514
211.815	57.79477686
212.029	56.19227727
212.243	55.80509495
212.456	55.19118422
212.67	55.075995
212.884	55.59613732
213.098	56.72230025
213.311	56.65161808
213.525	57.19669347
213.739	57.4497874
213.953	56.6712987
214.166	57.46063811
214.38	57.11874887
214.594	58.17692638
214.807	58.37433985
215.021	58.60958049
215.235	58.77493715
215.448	58.54196625
215.662	57.17074678
215.876	58.1153475
216.089	57.16079985
216.303	56.89698391
216.516	58.08173029
216.73	58.57194246
216.944	59.35846269
217.157	59.90181174
217.371	59.60535089
217.584	59.441141
217.798	59.46610402
218.011	58.65412885
218.225	59.10987743
218.439	59.56318106
218.652	59.0779452
218.866	58.91220198
219.079	57.58841823
219.293	57.88922784
219.506	58.82609655
219.719	58.7907016
219.933	58.68633319
220.146	59.65786284
220.36	59.54393231
220.573	60.50405334
220.787	60.75954488
221	61.33252111
221.214	61.0335862
221.427	59.85296309
221.64	59.53524076
221.854	59.86058617
222.067	59.57938974
222.28	59.16063792
222.494	59.01048949
222.707	58.92315617
222.92	59.09694199
223.134	58.52311417
223.347	59.57323108
223.56	60.2500518
223.774	60.46755136
223.987	60.62612779
224.2	60.58860216
224.414	60.49198625
224.627	60.30970451
224.84	59.67748303
225.053	59.8536992
225.267	59.86791684
225.48	58.32631556
225.693	59.05348615
225.906	60.38875366
226.119	60.19260664
226.333	59.55739542
226.546	59.44733866
226.759	60.36413017
226.972	60.91502178
227.185	60.09829274
227.398	60.02586348
227.612	60.52592689
227.825	60.02291105
228.038	59.74503289
228.251	58.92413578
228.464	57.94330189
228.677	58.09415251
228.89	59.00768612
229.103	59.00285247
229.316	59.20793862
229.529	58.90289918
229.743	59.36976289
229.956	60.95154839
230.169	59.6472717
230.382	59.22513626
230.595	58.98348704
230.808	59.50697129
231.021	59.30217443
231.234	59.36591717
231.447	58.4742277
231.66	59.36068928
231.872	59.22648453
232.085	59.19106783
232.298	59.38737012
232.511	59.1725218
232.724	59.49980555
232.937	59.1718697
233.15	58.50540467
233.363	57.42660696
233.576	56.84012234
233.789	56.35531734
234.002	56.10155539
234.214	54.85046171
234.427	54.37129015
234.64	55.0227248
234.853	54.60383028
235.066	54.66484973
235.279	54.00649405
235.491	55.54150515
235.704	54.64715663
235.917	54.36389904
236.13	54.93242242
236.342	54.40268077
236.555	54.34642714
236.768	54.70672504
236.981	54.38818359
237.193	53.58555498
237.406	53.57398316
237.619	54.67871601
237.832	54.58707404
238.044	55.3663313
238.257	56.17460159
238.47	55.8199082
238.682	56.88098941
238.895	55.63865992
239.108	55.66022857
239.32	55.74489573
239.533	55.80886879
239.746	56.27089129
239.958	55.26932184
240.171	55.50566701
240.383	56.2922989
240.596	55.9597841
240.808	57.28375019
241.021	57.66247039
241.234	56.98878142
241.446	57.96705276
241.659	58.7287763
241.871	59.02298008
242.084	58.21592084
242.296	58.60327034
242.509	57.71004396
242.721	57.60884048
242.934	58.39679083
243.146	58.23599627
243.359	58.29388345
243.571	58.6920755
243.784	58.33566307
243.996	58.52559891
244.208	58.69098206
244.421	57.66545003
244.633	57.97964959
244.846	57.49107975
245.058	57.54199057
245.27	56.93640254
245.483	56.24150017
245.695	56.33531759
245.907	56.67082374
246.12	56.81236342
246.332	56.1968493
246.544	56.43245099
246.757	56.7476914
246.969	57.11312956
247.181	56.6387816
247.394	56.01719609
247.606	55.80122619
247.818	56.57748026
248.03	56.14247638
248.243	56.66234861
248.455	55.54881621
248.667	55.00594746
248.879	55.75216895
249.092	54.69558502
249.304	55.35635683
249.516	53.98211951
249.728	54.07743863
249.94	54.54897217
250.153	54.65394186
250.365	53.32767827
250.577	53.59483731
250.789	54.01035741
251.001	53.74500441
251.213	53.97849462
251.425	54.65963191
251.637	54.01129432
251.85	53.91319547
252.062	53.90990889
252.274	53.7539328
252.486	53.24736487
252.698	52.63560643
252.91	52.96758681
253.122	52.70230989
253.334	52.75440408
253.546	53.38030115
253.758	53.57116011
253.97	54.1519542
254.182	54.25032254
254.394	53.75210677
254.606	53.83753894
254.818	54.60640501
255.03	54.1869093
255.242	54.03379716
255.454	54.19966484
255.666	53.33451209
255.877	52.31985808
256.089	52.55129132
256.301	53.03292964
256.513	53.30337097
256.725	53.7196545
256.937	53.89219366
257.149	53.94928995
257.361	55.03261751
257.572	55.96735322
257.784	56.19493027
257.996	55.96444209
258.208	55.84125748
258.42	55.87728009
258.631	55.32377471
258.843	56.26240505
259.055	56.08578855
259.267	56.00356542
259.479	55.77422086
259.69	56.42806877
259.902	56.67157228
260.114	57.2078102
260.325	57.57062037
260.537	57.91644979
260.749	57.89964724
260.961	57.29267797
261.172	57.23535764
261.384	57.99860971
261.596	58.33400313
261.807	58.72867133
262.019	58.24328715
262.23	57.97715273
262.442	58.00516673
262.654	57.31602229
262.865	58.05166933
263.077	57.92708234
263.288	57.08434148
263.5	56.94604999
263.712	56.55284181
263.923	55.83982837
264.135	55.86917786
264.346	55.35397433
264.558	54.2275998
264.769	54.19203603
264.981	54.09100121
265.192	53.43669152
265.404	54.08081247
265.615	53.43247128
265.827	52.19310252
266.038	52.7020305
266.25	51.93949417
266.461	51.65503508
266.673	51.6373527
266.884	51.32399363
267.095	51.73766508
267.307	50.67806442
267.518	50.53430976
267.73	50.51935031
267.941	50.41443604
268.152	50.77105107
268.364	51.37081559
268.575	50.70759836
268.786	50.90920032
268.998	51.72984851
269.209	51.75351813
269.42	51.95752731
269.632	52.4296211
269.843	52.2152413
270.054	53.34883769
270.265	53.62117617
270.477	52.84113432
270.688	52.51927128
270.899	52.96107366
271.11	53.44871564
271.322	53.79909666
271.533	54.21916148
271.744	54.04986926
271.955	54.48106156
272.166	54.25215709
272.378	53.87436892
272.589	53.75459044
272.8	53.59980182
273.011	53.94732765
273.222	54.12055089
273.433	53.81602411
273.644	53.3279229
273.856	53.1831843
274.067	52.64517586
274.278	53.21142834
274.489	52.65962747
274.7	52.33764583
274.911	52.04808009
275.122	51.9987595
275.333	52.23763476
275.544	51.9740457
275.755	52.04881088
275.966	51.29791241
276.177	50.56737812
276.388	50.3105202
276.599	50.84418399
276.81	51.79097296
277.021	51.53335388
277.232	51.74988021
277.443	51.48039022
277.654	51.86090609
277.865	52.40568372
278.076	52.64868936
278.287	52.79216848
278.497	53.20304767
278.708	52.71721135
278.919	52.05444131
279.13	52.21363822
279.341	52.79840585
279.552	52.86676901
279.763	52.26568285
279.973	51.79014015
280.184	51.89814274
280.395	51.7340268
280.606	52.37559003
280.817	51.88265802
281.027	51.18137693
281.238	51.23865418
281.449	51.16354632
281.66	51.25913119
281.87	51.14836779
282.081	49.5265011
282.292	49.24139914
282.503	49.48170779
282.713	49.55650374
282.924	49.79565232
283.135	49.33983618
283.345	49.48099002
283.556	49.28448074
283.767	49.01605456
283.977	49.07085012
284.188	49.26706939
284.399	49.21473961
284.609	48.87827602
284.82	49.16147452
285.03	49.1388117
285.241	49.6563235
285.451	49.61866268
285.662	48.60279295
285.873	48.62813946
286.083	48.56599588
286.294	48.39619377
286.504	48.61368677
286.715	48.20685782
286.925	48.33023515
287.136	47.72486058
287.346	46.87311977
287.557	46.48047337
287.767	46.36874306
287.978	46.41412598
288.188	46.47661046
288.399	46.0630401
288.609	45.94532987
288.819	45.30302115
289.03	44.97580585
289.24	44.51310298
289.451	44.65279835
289.661	44.60264677
289.871	44.34927019
290.082	44.51224641
290.292	43.86348078
290.502	43.18330634
290.713	42.62419789
290.923	42.21884697
291.133	42.03625659
291.344	41.01943765
291.554	40.52234412
291.764	40.07975648
291.974	39.6299615
292.185	39.25977976
292.395	38.68194201
292.605	37.712847
292.815	36.77905581
293.026	35.72732496
293.236	35.18443644
293.446	34.25600799
293.656	33.42758165
293.866	32.16605463
294.077	31.02924452
294.287	30.24449049
294.497	29.30168935
294.707	28.60921882
294.917	28.07379241
295.127	27.56152398
295.337	26.96218378
295.548	26.09260899
295.758	25.40342127
295.968	24.8592243
296.178	24.19867699
296.388	23.712957
296.598	23.17287783
296.808	22.54454218
297.018	22.0122124
297.228	21.73271327
297.438	21.36065408
297.648	21.04151883
297.858	20.73280474
298.068	20.38003215
298.278	20.11662238
298.488	19.94211692
298.698	19.70835501
298.908	19.46093156
299.118	19.20349574
299.328	18.8878804
299.538	18.64152951
299.748	18.41706638
299.957	18.18699167
300.167	18.03046166
300.377	17.80432607
300.587	17.64264195
300.797	17.41207292
301.007	17.22200344
301.217	17.15875083
301.426	17.05903848
301.636	16.90134299
301.846	16.76018678
302.056	16.58803002
302.266	16.42638155
302.475	16.31992267
302.685	16.2260565
302.895	16.11013874
303.105	15.97223086
303.314	15.88271479
303.524	15.78970153
303.734	15.71208146
303.944	15.60511337
304.153	15.52932503
304.363	15.48946357
304.573	15.39355362
304.782	15.35019648
304.992	15.29372054
305.202	15.25749578
305.411	15.17705118
305.621	15.11674063
305.831	15.0548047
306.04	15.01806889
306.25	14.98376065
306.459	14.95349349
306.669	14.94222122
306.878	14.91749134
307.088	14.87594668
307.298	14.84153052
307.507	14.80652663
307.717	14.76129442
307.926	14.7218632
308.136	14.69806474
308.345	14.68633283
308.555	14.65907767
308.764	14.62001026
308.974	14.59227696
309.183	14.55436285
309.392	14.52297885
309.602	14.48317298
309.811	14.48601109
310.021	14.42680811
310.23	14.41301092
310.44	14.38786782
310.649	14.35506785
310.858	14.32243919
311.068	14.28144487
311.277	14.24326304
311.486	14.21564701
311.696	14.18997372
311.905	14.18253178
312.114	14.17763902
312.324	14.16160988
312.533	14.13190094
312.742	14.1095708
312.952	14.09180267
313.161	14.07309822
313.37	14.06078411
313.579	14.04565172
313.789	14.0217487
313.998	14.01001425
314.207	13.98636575
314.416	13.98762261
314.625	13.95748643
314.835	13.93146216
315.044	13.91827413
315.253	13.90934309
315.462	13.89075655
315.671	13.87978879
315.88	13.86074969
316.09	13.83535863
316.299	13.8125011
316.508	13.7843357
316.717	13.76771819
316.926	13.74904224
317.135	13.72127219
317.344	13.69833045
317.553	13.68233946
317.762	13.66824236
317.971	13.64900661
318.18	13.64308889
318.389	13.63140609
318.598	13.60982115
318.807	13.59964115
319.016	13.58286464
319.225	13.56638258
319.434	13.53780876
319.643	13.50365505
319.852	13.49264874
320.061	13.47154304
320.27	13.45403719
320.479	13.43638588
320.688	13.41084807
320.897	13.38405428
321.105	13.36412252
321.314	13.34984472
321.523	13.33396565
321.732	13.31775254
321.941	13.30363026
322.15	13.27983332
322.359	13.26640938
322.567	13.24673299
322.776	13.22408618
322.985	13.20685863
323.194	13.18455534
323.403	13.17130596
323.611	13.1540072
323.82	13.14389842
324.029	13.13573741
324.237	13.12101437
324.446	13.10644521
324.655	13.09586361
324.864	13.08507131
325.072	13.07525377
325.281	13.0656327
325.49	13.06064802
325.698	13.04822004
325.907	13.04390139
326.116	13.03566416
326.324	13.02247526
326.533	13.01440954
326.741	13.00148214
326.95	12.98809118
327.159	12.98687684
327.367	12.97834034
327.576	12.96738716
327.784	12.96044241
327.993	12.9489342
328.201	12.94363264
328.41	12.93449378
328.618	12.92532682
328.827	12.92122222
329.035	12.91286586
329.244	12.90301027
329.452	12.8899937
329.661	12.89127242
329.869	12.87764123
330.078	12.87408316
330.286	12.8609645
330.495	12.85222494
330.703	12.84501086
330.911	12.8393871
331.12	12.82772375
331.328	12.81809743
331.537	12.79944142
331.745	12.79405265
331.953	12.79276696
332.162	12.78449411
332.37	12.7829664
332.578	12.77523008
332.787	12.77187767
332.995	12.76441347
333.203	12.75592308
333.411	12.7443618
333.62	12.73506501
333.828	12.73782134
334.036	12.72748697
334.244	12.72207199
334.453	12.72053329
334.661	12.72049035
334.869	12.71444455
335.077	12.71201453
335.285	12.70551977
335.494	12.70497513
335.702	12.70365219
335.91	12.70011429
336.118	12.69356319
336.326	12.6879958
336.534	12.68204757
336.742	12.67161891
336.951	12.66808109
337.159	12.66330939
337.367	12.66492562
337.575	12.65831539
337.783	12.65727078
337.991	12.66005176
338.199	12.65492809
338.407	12.65099321
338.615	12.64862404
338.823	12.64008999
339.031	12.63407302
339.239	12.62958806
339.447	12.62619682
339.655	12.62062499
339.863	12.6184518
340.071	12.61504418
340.279	12.61895761
340.487	12.6217521
340.695	12.62167337
340.903	12.62000321
341.11	12.62351931
341.318	12.62091371
341.526	12.61769277
341.734	12.6134819
341.942	12.61802384
342.15	12.61827916
342.358	12.61599868
342.565	12.62025234
342.773	12.62429187
342.981	12.62753963
343.189	12.62542279
343.397	12.62779857
343.604	12.63450928
343.812	12.636638
344.02	12.64013433
344.228	12.64316
344.435	12.64741092
344.643	12.65019015
344.851	12.65163939
345.058	12.65171698
345.266	12.65373681
345.474	12.66241532
345.681	12.66484961
345.889	12.67132989
346.097	12.67548149
346.304	12.67965751
346.512	12.68232344
346.72	12.68757707
346.927	12.68838756
347.135	12.69024711
347.342	12.68841671
347.55	12.6935226
347.758	12.69932968
347.965	12.70303729
348.173	12.70710699
348.38	12.71994668
348.588	12.72945294
348.795	12.7354004
349.003	12.74073771
349.21	12.74788807
349.418	12.75877173
349.625	12.76389436
349.833	12.76479603
350.04	12.77600409
350.247	12.78571522
350.455	12.7950167
350.662	12.80340753
350.87	12.81931941
351.077	12.82954977
351.284	12.83953227
351.492	12.85208587
351.699	12.86446274
351.906	12.88114612
352.114	12.89118804
352.321	12.90455283
352.528	12.91004153
352.736	12.92057975
352.943	12.93109916
353.15	12.94699456
353.358	12.95951431
353.565	12.97438443
353.772	12.98833212
353.979	13.01320619
354.187	13.02763917
354.394	13.03730587
354.601	13.04957974
354.808	13.0642796
355.015	13.08115423
355.223	13.09224991
355.43	13.10666019
355.637	13.12841733
355.844	13.14409545
356.051	13.16341133
356.258	13.17678001
356.465	13.19463434
356.673	13.21031539
356.88	13.23440101
357.087	13.2508283
357.294	13.26879139
357.501	13.28395195
357.708	13.30400608
357.915	13.32300342
358.122	13.34126917
358.329	13.35790541
358.536	13.3811073
358.743	13.40476326
358.95	13.42923879
359.157	13.44956018
359.364	13.46811284
359.571	13.49122231
359.778	13.51564974
359.985	13.52884888
360.192	13.55280917
360.399	13.57678316
360.606	13.60143226
360.812	13.62298172
361.019	13.6428859
361.226	13.66417524
361.433	13.6874998
361.64	13.71158196
361.847	13.73614959
362.054	13.75576887
362.26	13.78106367
362.467	13.80344125
362.674	13.82245008
362.881	13.84629322
363.088	13.8694306
363.294	13.89729321
363.501	13.92081017
363.708	13.94328459
363.915	13.96955763
364.121	13.99459361
364.328	14.02558413
364.535	14.05330131
364.741	14.08442411
364.948	14.11014159
365.155	14.13685067
365.361	14.16720763
365.568	14.20305199
365.775	14.23233597
365.981	14.2622445
366.188	14.29233231
366.395	14.33026287
366.601	14.36001421
366.808	14.39436255
367.014	14.43490193
367.221	14.47321985
367.427	14.51383406
367.634	14.54484273
367.84	14.5824415
368.047	14.62803145
368.254	14.67605944
368.46	14.72011336
368.667	14.76120868
368.873	14.8062508
369.079	14.84455603
369.286	14.88828816
369.492	14.93750535
369.699	14.98306594
369.905	15.02417486
370.112	15.07959065
370.318	15.13129039
370.524	15.18631929
370.731	15.23850893
370.937	15.29530113
371.144	15.34774805
371.35	15.39951667
371.556	15.45090071
371.763	15.50471708
371.969	15.56479783
372.175	15.62535953
372.381	15.67641596
372.588	15.72557218
372.794	15.77910098
373	15.83735619
373.206	15.88958089
373.413	15.94785711
373.619	16.00663276
373.825	16.06304052
374.031	16.12327519
374.238	16.1881813
374.444	16.24480044
374.65	16.3064385
374.856	16.37064665
375.062	16.43567241
375.268	16.49765858
375.475	16.56398247
375.681	16.6353657
375.887	16.70633604
376.093	16.77611189
376.299	16.84082559
376.505	16.91676125
376.711	16.99483478
376.917	17.07364741
377.123	17.15649396
377.329	17.24089857
377.535	17.32699017
377.741	17.41618808
377.947	17.5074648
378.153	17.6013509
378.359	17.70162248
378.565	17.79690695
378.771	17.89298676
378.977	17.99349283
379.183	18.09789406
379.389	18.20594834
379.595	18.31903202
379.801	18.43848069
380.007	18.55854961
380.213	18.67742458
380.418	18.80737113
380.624	18.94468072
380.83	19.08084031
381.036	19.22122254
381.242	19.35945982
381.448	19.5052327
381.653	19.64918234
381.859	19.8038461
382.065	19.95984435
382.271	20.11663541
382.476	20.27220185
382.682	20.43189304
382.888	20.59060009
383.094	20.75734683
383.299	20.91826091
383.505	21.08293969
383.711	21.2485517
383.916	21.41374769
384.122	21.57899342
384.328	21.74624275
384.533	21.9250913
384.739	22.10060891
384.945	22.28308404
385.15	22.46514791
385.356	22.64865237
385.562	22.83853832
385.767	23.02662687
385.973	23.22341254
386.178	23.412486
386.384	23.59676174
386.589	23.78614885
386.795	23.98835134
387	24.18840894
387.206	24.39758683
387.411	24.60630298
387.617	24.82763811
387.822	25.04832958
388.028	25.27399244
388.233	25.50727054
388.439	25.74763878
388.644	25.99681041
388.85	26.24807248
389.055	26.5085092
389.26	26.77810253
389.466	27.04873634
389.671	27.33180683
389.877	27.61687295
390.082	27.91945669
390.287	28.22143716
390.493	28.53064065
390.698	28.84564285
390.903	29.16961159
391.109	29.48900621
391.314	29.81497914
391.519	30.13962128
391.724	30.47284379
391.93	30.80661491
392.135	31.13434611
392.34	31.46865347
392.545	31.80678702
392.751	32.14478056
392.956	32.47092127
393.161	32.80067285
393.366	33.13020291
393.571	33.456168
393.776	33.78504809
393.982	34.10717454
394.187	34.42586677
394.392	34.7368899
394.597	35.04573514
394.802	35.3587951
395.007	35.6706213
395.212	35.97552419
395.417	36.28247703
395.622	36.58407434
395.827	36.87656114
396.032	37.1674138
396.237	37.45341339
396.442	37.73702224
396.647	38.01599328
396.852	38.28576621
397.057	38.55982018
397.262	38.83375388
397.467	39.10163965
397.672	39.36363713
397.877	39.62526783
398.082	39.87955652
398.287	40.13550392
398.492	40.39008805
398.697	40.64521059
398.902	40.89929684
399.107	41.14542068
399.311	41.39230308
399.516	41.63387876
399.721	41.8711608
399.926	42.11358198
400.131	42.35386099
400.336	42.58449157
400.54	42.81627075
400.745	43.05203841
400.95	43.28714078
401.155	43.52244078
401.359	43.75382532
401.564	43.98599008
401.769	44.21570172
401.974	44.45063537
402.178	44.68863123
402.383	44.91354832
402.588	45.14280509
402.792	45.36761572
402.997	45.59666913
403.202	45.8241016
403.406	46.04720001
403.611	46.27329406
403.815	46.49862974
404.02	46.72352519
404.225	46.94380064
404.429	47.16133888
404.634	47.38461806
404.838	47.60556422
405.043	47.82314704
405.247	48.03914299
405.452	48.25165651
405.656	48.47038378
405.861	48.6818637
406.065	48.88855867
406.27	49.09408465
406.474	49.2923107
406.679	49.49784322
406.883	49.70045564
407.088	49.89760026
407.292	50.08756059
407.497	50.27780658
407.701	50.46966847
407.905	50.65258269
408.11	50.83583696
408.314	51.02021751
408.518	51.19469469
408.723	51.37596156
408.927	51.55226252
409.131	51.72705617
409.336	51.89390672
409.54	52.05872851
409.744	52.23176287
409.949	52.39001871
410.153	52.55242784
410.357	52.70895744
410.561	52.86190518
410.766	53.01182861
410.97	53.16819538
411.174	53.31775736
411.378	53.47563769
411.582	53.6315496
411.787	53.78425516
411.991	53.93329468
412.195	54.0778399
412.399	54.22321274
412.603	54.36857682
412.807	54.5120454
413.011	54.65368959
413.215	54.79039139
413.419	54.93003327
413.624	55.06955976
413.828	55.2155579
414.032	55.34988029
414.236	55.48582076
414.44	55.62046467
414.644	55.75770375
414.848	55.89485528
415.052	56.03068701
415.256	56.16837499
415.46	56.29301064
415.664	56.41754602
415.868	56.53926617
416.072	56.66968795
416.275	56.79960986
416.479	56.92853323
416.683	57.04846386
416.887	57.17351825
417.091	57.29781896
417.295	57.41761795
417.499	57.54159893
417.703	57.65650194
417.906	57.77320626
418.11	57.88923274
418.314	58.00838846
418.518	58.12828218
418.722	58.23532833
418.925	58.3491979
419.129	58.46542307
419.333	58.57671461
419.537	58.6787037
419.74	58.78503478
419.944	58.8959286
420.148	59.00326647
420.352	59.10261233
420.555	59.19505475
420.759	59.29368243
420.963	59.39407528
421.166	59.48112669
421.37	59.57491695
421.573	59.67376392
421.777	59.76280939
421.981	59.8582702
422.184	59.95321182
422.388	60.0439631
422.591	60.14084757
422.795	60.22681147
422.999	60.32716609
423.202	60.41509278
423.406	60.49792282
423.609	60.58737706
423.813	60.6798932
424.016	60.77388112
424.22	60.85774516
424.423	60.94471998
424.627	61.033984
424.83	61.11923827
425.033	61.21052849
425.237	61.30507481
425.44	61.40123237
425.644	61.49509604
425.847	61.5756358
426.05	61.65996913
426.254	61.74436939
426.457	61.82655404
426.66	61.90571471
426.864	61.97748273
427.067	62.05906565
427.27	62.13741765
427.474	62.22183166
427.677	62.30000118
427.88	62.37168857
428.084	62.44535565
428.287	62.5126118
428.49	62.57923873
428.693	62.65024933
428.896	62.71780271
429.1	62.79200561
429.303	62.85450818
429.506	62.91105177
429.709	62.97691925
429.912	63.038956
430.116	63.1071066
430.319	63.17040381
430.522	63.23274425
430.725	63.29401049
430.928	63.3588451
431.131	63.41987085
431.334	63.47682679
431.537	63.53194491
431.74	63.58752426
431.943	63.6474588
432.146	63.70983256
432.349	63.7652147
432.552	63.82568572
432.755	63.88866503
432.958	63.94301051
433.161	63.99284177
433.364	64.03787947
433.567	64.08498899
433.77	64.13574122
433.973	64.18429127
434.176	64.23223272
434.379	64.28091581
434.582	64.32542884
434.785	64.37629136
434.988	64.42245742
435.19	64.46359615
435.393	64.50805695
435.596	64.55518167
435.799	64.6008711
436.002	64.63827894
436.205	64.6749526
436.407	64.70792998
436.61	64.74010269
436.813	64.77933517
437.016	64.81117023
437.218	64.84899531
437.421	64.89305498
437.624	64.93892881
437.827	64.98177711
438.029	65.02235352
438.232	65.05984189
438.435	65.0915569
438.637	65.12629564
438.84	65.16627544
439.043	65.19293499
439.245	65.2315924
439.448	65.2656745
439.65	65.29913903
439.853	65.33722515
440.056	65.37059645
440.258	65.41428865
440.461	65.44966811
440.663	65.49411224
440.866	65.53701135
441.068	65.57273185
441.271	65.60943315
441.473	65.64054422
441.676	65.66789278
441.878	65.69379273
442.081	65.73043197
442.283	65.76826348
442.486	65.79768384
442.688	65.83640248
442.89	65.86712121
443.093	65.89375865
443.295	65.93074286
443.498	65.95343823
443.7	65.98486405
443.902	66.01686774
444.105	66.03853073
444.307	66.06482466
444.509	66.0799216
444.712	66.11197266
444.914	66.1389983
445.116	66.16345849
445.319	66.18552704
445.521	66.21037879
445.723	66.23165799
445.925	66.2607951
446.128	66.28546992
446.33	66.30688512
446.532	66.32617634
446.734	66.35268514
446.936	66.36791973
447.139	66.39064419
447.341	66.41724442
447.543	66.4345205
447.745	66.46031993
447.947	66.48720357
448.149	66.50137206
448.351	66.53116881
448.553	66.55132493
448.755	66.57383229
448.958	66.59118793
449.16	66.60373495
449.362	66.62308515
449.564	66.64223179
449.766	66.65165799
449.968	66.67363317
450.17	66.68921938
450.372	66.70605526
450.574	66.71687552
450.776	66.73529453
450.978	66.74735026
451.179	66.76296436
451.381	66.78176457
451.583	66.80252339
451.785	66.82124768
451.987	66.83300404
452.189	66.84494286
452.391	66.85951298
452.593	66.86238694
452.795	66.86872365
452.996	66.87974639
453.198	66.88793262
453.4	66.89841277
453.602	66.90222823
453.804	66.90716562
454.005	66.92431836
454.207	66.92665031
454.409	66.93231905
454.611	66.93720101
454.812	66.94608572
455.014	66.95464118
455.216	66.96642746
455.417	66.97961406
455.619	66.97958787
455.821	66.97456084
456.022	66.97110045
456.224	66.97420555
456.426	66.9714527
456.627	66.98163751
456.829	66.98358502
457.031	66.98899741
457.232	66.99316855
457.434	66.99966876
457.635	67.00137742
457.837	67.0036656
458.038	67.00487464
458.24	67.00140883
458.441	67.0019254
458.643	67.00397866
458.844	67.0033427
459.046	67.00253662
459.247	66.99755472
459.449	66.98803466
459.65	66.97649919
459.852	66.97568628
460.053	66.97573823
460.254	66.97718147
460.456	66.97559827
460.657	66.96822329
460.859	66.95775769
461.06	66.95319816
461.261	66.94346334
461.463	66.94530892
461.664	66.93269425
461.865	66.92530265
462.066	66.92081035
462.268	66.92013058
462.469	66.91859937
462.67	66.91733491
462.872	66.90820979
463.073	66.90467424
463.274	66.89519512
463.475	66.88541167
463.676	66.8816016
463.878	66.87296681
464.079	66.85827376
464.28	66.84722863
464.481	66.83248937
464.682	66.82614006
464.883	66.82151791
465.085	66.81225521
465.286	66.80287296
465.487	66.79886005
465.688	66.77843859
465.889	66.77086176
466.09	66.76244467
466.291	66.75121217
466.492	66.7397635
466.693	66.72270479
466.894	66.71196862
467.095	66.70241672
467.296	66.69062285
467.497	66.68295341
467.698	66.67397038
467.899	66.65981195
468.1	66.64855137
468.301	66.63990286
468.502	66.62834923
468.703	66.61938116
468.903	66.60317732
469.104	66.5920891
469.305	66.58143501
469.506	66.56875343
469.707	66.55319553
469.908	66.54687361
470.109	66.5318651
470.309	66.51494043
470.51	66.50243645
470.711	66.49028613
470.912	66.47842774
471.112	66.46528591
471.313	66.45472505
471.514	66.44231158
471.715	66.426743
471.915	66.41451096
472.116	66.40335653
472.317	66.39514771
472.517	66.38341795
472.718	66.3735194
472.919	66.36577543
473.119	66.35284084
473.32	66.34142295
473.521	66.33175996
473.721	66.32277877
473.922	66.31856524
474.122	66.30618872
474.323	66.29816915
474.523	66.29032019
474.724	66.28079169
474.925	66.26816333
475.125	66.26304903
475.326	66.25295888
475.526	66.23923767
475.727	66.23224019
475.927	66.22751372
476.127	66.21608231
476.328	66.20817548
476.528	66.20125963
476.729	66.1924517
476.929	66.18185259
477.13	66.16618247
477.33	66.16133527
477.53	66.15175759
477.731	66.13933425
477.931	66.12717271
478.131	66.11218172
478.332	66.10113917
478.532	66.08944668
478.732	66.07733078
478.933	66.06588196
479.133	66.05684861
479.333	66.04215402
479.533	66.02724614
479.734	66.01695562
479.934	66.00277762
480.134	65.98955019
480.334	65.97876987
480.534	65.965732
480.735	65.94882705
480.935	65.94202101
481.135	65.93684697
481.335	65.93012674
481.535	65.91929137
481.735	65.90788804
481.935	65.89608288
482.136	65.8925053
482.336	65.88434903
482.536	65.87224868
482.736	65.86077451
482.936	65.8548559
483.136	65.84401262
483.336	65.8358976
483.536	65.82758931
483.736	65.82285519
483.936	65.81323113
484.136	65.80346693
484.336	65.78731307
484.536	65.77601578
484.736	65.76652359
484.936	65.75236023
485.135	65.73926198
485.335	65.72453351
485.535	65.71617786
485.735	65.70497127
485.935	65.69680535
486.135	65.69098856
486.335	65.67498001
486.534	65.66346245
486.734	65.65531119
486.934	65.65017517
487.134	65.63591516
487.334	65.62782454
487.533	65.61633711
487.733	65.60566617
487.933	65.59455783
488.133	65.5879858
488.332	65.57654239
488.532	65.57302681
488.732	65.56776698
488.931	65.56181517
489.131	65.56160154
489.331	65.55145588
489.53	65.545019
489.73	65.53706991
489.93	65.52522288
490.129	65.5145219
490.329	65.50033095
490.528	65.49555001
490.728	65.48871088
490.928	65.48046442
491.127	65.46785712
491.327	65.46172252
491.526	65.44991696
491.726	65.44009397
491.925	65.43196953
492.125	65.42432916
492.324	65.41321174
492.524	65.40922461
492.723	65.40267689
492.922	65.39143329
493.122	65.37811136
493.321	65.36529168
493.521	65.35689814
493.72	65.34718976
493.919	65.33665237
494.119	65.32653596
494.318	65.3154899
494.517	65.3116448
494.717	65.30420774
494.916	65.29133159
495.115	65.2804615
495.315	65.26989156
495.514	65.25755069
495.713	65.2523202
495.912	65.24419156
496.112	65.23291302
496.311	65.2216518
496.51	65.21257787
496.709	65.19781628
496.908	65.18494785
497.108	65.17863109
497.307	65.17242098
497.506	65.16407789
497.705	65.15550688
497.904	65.14566451
498.103	65.13527545
498.302	65.13079197
498.501	65.12462423
498.701	65.11247486
498.9	65.10081129
499.099	65.09775698
499.298	65.09562922
499.497	65.08897257
499.696	65.08754258
499.895	65.07792738
500.094	65.0700555
500.293	65.06379097
500.492	65.05940607
500.691	65.05385337
500.89	65.05018037
501.088	65.04270739
501.287	65.03243004
501.486	65.02016343
501.685	65.01715309
501.884	65.00959903
502.083	64.99817728
502.282	64.98597386
502.481	64.97724381
502.679	64.97340621
502.878	64.9667887
503.077	64.95494669
503.276	64.94547385
503.475	64.93353672
503.673	64.92603873
503.872	64.91047369
504.071	64.9024379
504.27	64.89432643
504.468	64.88242762
504.667	64.87269912
504.866	64.86046557
505.064	64.85181491
505.263	64.84001962
505.462	64.83351751
505.66	64.82631436
505.859	64.81290671
506.058	64.80184842
506.256	64.79571975
506.455	64.79339985
506.653	64.78128127
506.852	64.76551753
507.05	64.75721558
507.249	64.75090252
507.448	64.7444131
507.646	64.73569722
507.845	64.72433987
508.043	64.71533134
508.242	64.70638716
508.44	64.69040569
508.638	64.68578483
508.837	64.67117092
509.035	64.66374975
509.234	64.65334862
509.432	64.64403091
509.631	64.62821125
509.829	64.62399632
510.027	64.61597771
510.226	64.60856215
510.424	64.60003148
510.622	64.58912149
510.821	64.58285586
511.019	64.5763852
511.217	64.57136857
511.415	64.56278846
511.614	64.5538184
511.812	64.54747651
512.01	64.54449039
512.208	64.5408043
512.407	64.532427
512.605	64.53333658
512.803	64.53308021
513.001	64.53268677
513.199	64.52940501
513.398	64.52723634
513.596	64.53318039
513.794	64.53751764
513.992	64.52978842
514.19	64.53350971
514.388	64.52885812
514.586	64.52749333
514.784	64.52523716
514.982	64.52575946
515.18	64.52474597
515.378	64.52202908
515.576	64.52663116
515.774	64.52486124
515.972	64.5243065
516.17	64.5220405
516.368	64.52370296
516.566	64.52784653
516.764	64.5304791
516.962	64.53154494
517.16	64.53613631
517.358	64.53844995
517.556	64.54201081
517.754	64.54506142
517.952	64.54638235
518.149	64.55400325
518.347	64.55315836
518.545	64.56403107
518.743	64.57023013
518.941	64.58024791
519.138	64.58971841
519.336	64.59819627
519.534	64.60497432
519.732	64.61216907
519.929	64.6218248
520.127	64.629415
520.325	64.63979958
520.523	64.65008334
520.72	64.65794807
520.918	64.67022928
521.116	64.67930143
521.313	64.68603714
521.511	64.69189492
521.709	64.70164019
521.906	64.70866482
522.104	64.71720285
522.301	64.73120425
522.499	64.74334561
522.696	64.75379701
522.894	64.77056381
523.092	64.78248855
523.289	64.79197717
523.487	64.80418082
523.684	64.81575503
523.882	64.82416341
524.079	64.83591056
524.276	64.84897068
524.474	64.86225618
524.671	64.87351669
524.869	64.88573109
525.066	64.89800543
525.264	64.91189198
525.461	64.92621003
525.658	64.94200331
525.856	64.95961421
526.053	64.9766856
526.25	64.99557684
526.448	65.01270638
526.645	65.02851442
526.842	65.04142511
527.039	65.05291559
527.237	65.07080623
527.434	65.08629826
527.631	65.10737669
527.828	65.12795016
528.026	65.15085172
528.223	65.16809681
528.42	65.18907689
528.617	65.21045829
528.814	65.23324436
529.012	65.25465759
529.209	65.2736344
529.406	65.29440367
529.603	65.31534329
529.8	65.34316861
529.997	65.36272325
530.194	65.3839026
530.391	65.40523776
530.588	65.42050254
530.785	65.44205819
530.982	65.4670825
531.179	65.49068192
531.376	65.50989502
531.573	65.53268275
531.77	65.55100677
531.967	65.57494864
532.164	65.5903609
532.361	65.61521574
532.558	65.63866305
532.755	65.6640134
532.952	65.68729227
533.149	65.71188013
533.346	65.73821243
533.543	65.76116965
533.739	65.7883516
533.936	65.81478327
534.133	65.84039703
534.33	65.86745823
534.527	65.89587431
534.723	65.92244706
534.92	65.94819797
535.117	65.97878346
535.314	66.00860157
535.51	66.04279238
535.707	66.07471536
535.904	66.10939223
536.1	66.13725319
536.297	66.1726932
536.494	66.20131447
536.69	66.22846747
536.887	66.25889966
537.084	66.29177558
537.28	66.32472709
537.477	66.35483494
537.674	66.39101541
537.87	66.42619956
538.067	66.45510275
538.263	66.48593221
538.46	66.52025623
538.656	66.54945778
538.853	66.5873064
539.049	66.61994359
539.246	66.65145621
539.442	66.68401102
539.639	66.71489388
539.835	66.74525443
540.032	66.77728703
540.228	66.81287685
540.424	66.84930887
540.621	66.88741419
540.817	66.92473083
541.014	66.95410778
541.21	66.98474117
541.406	67.0183962
541.603	67.05093949
541.799	67.08226953
541.995	67.1172184
542.191	67.14960891
542.388	67.18247506
542.584	67.20993459
542.78	67.23985911
542.976	67.26880711
543.173	67.30199597
543.369	67.33588588
543.565	67.36465405
543.761	67.39237821
543.957	67.42125026
544.154	67.44978781
544.35	67.47300631
544.546	67.49624528
544.742	67.5208559
544.938	67.5470206
545.134	67.57787968
545.33	67.60625871
545.526	67.63356859
545.722	67.65965018
545.919	67.68145104
546.115	67.70200592
546.311	67.72472172
546.507	67.74723877
546.703	67.76814538
546.899	67.79395873
547.095	67.81809499
547.29	67.83909328
547.486	67.85839254
547.682	67.88090716
547.878	67.90382305
548.074	67.92605409
548.27	67.94485059
548.466	67.96689541
548.662	67.99041305
548.858	68.01131818
549.053	68.02951719
549.249	68.04834091
549.445	68.06669244
549.641	68.08626159
549.837	68.10653247
550.032	68.12691084
550.228	68.14699647
550.424	68.16786196
550.62	68.18470387
550.815	68.20424714
551.011	68.22523198
551.207	68.2458702
551.402	68.26888164
551.598	68.28954815
551.794	68.30987797
551.989	68.33050087
552.185	68.35186821
552.381	68.3726426
552.576	68.3953194
552.772	68.41705584
552.967	68.43981838
553.163	68.46678752
553.359	68.48979777
553.554	68.5177962
553.75	68.54305922
553.945	68.56524902
554.141	68.58975532
554.336	68.61124605
554.532	68.63478337
554.727	68.67107168
554.922	68.7057984
555.118	68.72889785
555.313	68.75734858
555.509	68.78731946
555.704	68.81570364
555.899	68.84524642
556.095	68.87390576
556.29	68.90458167
556.486	68.94133694
556.681	68.98111443
556.876	69.01473293
557.071	69.05306518
557.267	69.08878536
557.462	69.12563126
557.657	69.16167629
557.853	69.20796102
558.048	69.25292647
558.243	69.29997499
558.438	69.34958608
558.633	69.39919578
558.829	69.44498078
559.024	69.49491567
559.219	69.55529677
559.414	69.60836453
559.609	69.66499478
559.804	69.72687842
559.999	69.78379036
560.194	69.85146811
560.39	69.91853007
560.585	69.98095759
560.78	70.04247405
560.975	70.10887275
561.17	70.18192338
561.365	70.24947817
561.56	70.32748232
561.755	70.40160013
561.95	70.46952397
562.145	70.55239935
562.34	70.63581214
562.535	70.71637663
562.729	70.80272668
562.924	70.88605502
563.119	70.96698774
563.314	71.0443988
563.509	71.13105347
563.704	71.21823626
563.899	71.30725909
564.093	71.40432674
564.288	71.49539839
564.483	71.59260122
564.678	71.69113448
564.873	71.79539199
565.067	71.89962808
565.262	71.99488265
565.457	72.10298608
565.652	72.20469789
565.846	72.31525623
566.041	72.42263336
566.236	72.52504231
566.43	72.63037835
566.625	72.74816921
566.82	72.86029931
567.014	72.97653779
567.209	73.10002321
567.404	73.22551161
567.598	73.34511611
567.793	73.4685964
567.987	73.59081305
568.182	73.71654775
568.376	73.83556614
568.571	73.95684989
568.765	74.08047574
568.96	74.20144367
569.154	74.32916329
569.349	74.45688074
569.543	74.58648417
569.738	74.71594072
569.932	74.84499094
570.127	74.97557606
570.321	75.11068154
570.515	75.2462829
570.71	75.37328896
570.904	75.50350331
571.098	75.63689574
571.293	75.76767005
571.487	75.90199681
571.681	76.03916538
571.876	76.17641287
572.07	76.31462005
572.264	76.44728006
572.458	76.58365575
572.653	76.72405999
572.847	76.85719335
573.041	76.99566492
573.235	77.12958686
573.43	77.26735455
573.624	77.40686567
573.818	77.54229033
574.012	77.67400534
574.206	77.81213788
574.4	77.94799304
574.594	78.07651104
574.788	78.21782353
574.983	78.35061676
575.177	78.4842284
575.371	78.6137286
575.565	78.74273333
575.759	78.87171362
575.953	79.00088828
576.147	79.12656104
576.341	79.25723235
576.535	79.39045252
576.729	79.51483589
576.923	79.64970567
577.117	79.77818714
577.31	79.90241366
577.504	80.02642354
577.698	80.14916512
577.892	80.27685666
578.086	80.40373095
578.28	80.52466933
578.474	80.64241872
578.668	80.76291701
578.861	80.87683597
579.055	80.99629593
579.249	81.10724771
579.443	81.22411762
579.636	81.34413169
579.83	81.46243997
580.024	81.57517238
580.218	81.68385858
580.411	81.78960224
580.605	81.89413493
580.799	82.00241916
580.992	82.11175835
581.186	82.21692853
581.38	82.31691559
581.573	82.41687916
581.767	82.51767338
581.961	82.61441139
582.154	82.71173758
582.348	82.814786
582.541	82.9147481
582.735	83.00779981
582.928	83.10507187
583.122	83.20278761
583.315	83.29624768
583.509	83.3824177
583.702	83.47144199
583.896	83.55476019
584.089	83.63704695
584.283	83.72663028
584.476	83.81125824
584.67	83.90397135
584.863	83.98662733
585.056	84.06157948
585.25	84.145919
585.443	84.2379917
585.636	84.31984405
585.83	84.39812577
586.023	84.47718958
586.216	84.5527222
586.41	84.62584026
586.603	84.69704699
586.796	84.77653291
586.989	84.8520435
587.183	84.9171001
587.376	84.993633
587.569	85.0701594
587.762	85.13188493
587.955	85.2039688
588.149	85.27290635
588.342	85.3344164
588.535	85.40255447
588.728	85.46018729
588.921	85.52341359
589.114	85.5834957
589.307	85.6337705
589.5	85.69282628
589.693	85.75373038
589.886	85.81044791
590.08	85.86559638
590.273	85.92196165
590.466	85.97376449
590.659	86.02761005
590.852	86.07763013
591.044	86.12000926
591.237	86.16988653
591.43	86.21017786
591.623	86.25792612
591.816	86.31760605
592.009	86.36335496
592.202	86.40434958
592.395	86.45428442
592.588	86.49551875
592.781	86.54129856
592.973	86.58614345
593.166	86.62568788
593.359	86.67281532
593.552	86.70301017
593.745	86.73147896
593.937	86.76464232
594.13	86.79149853
594.323	86.81970583
594.515	86.84659183
594.708	86.87973945
594.901	86.9137101
595.094	86.95352502
595.286	86.98914808
595.479	87.02339469
595.672	87.04922971
595.864	87.06715917
596.057	87.09747702
596.249	87.12697852
596.442	87.15348139
596.635	87.17382127
596.827	87.19220642
597.02	87.21370983
597.212	87.24180471
597.405	87.26143805
597.597	87.28346259
597.79	87.31158429
597.982	87.33500286
598.175	87.37548054
598.367	87.40991734
598.559	87.4457667
598.752	87.47074802
598.944	87.49127211
599.137	87.50508237
599.329	87.52539667
599.521	87.5394145
599.714	87.55779546
599.906	87.58710129
600.098	87.60239579
600.291	87.63070034
600.483	87.6520558
600.675	87.67732427
600.868	87.70214457
601.06	87.716913
601.252	87.73505067
601.444	87.75310927
601.637	87.77367733
601.829	87.79045718
602.021	87.81022813
602.213	87.81726084
602.405	87.83326124
602.597	87.83812727
602.789	87.84845794
602.982	87.85673776
603.174	87.87617159
603.366	87.88730353
603.558	87.91169547
603.75	87.92826339
603.942	87.93701913
604.134	87.95032087
604.326	87.95590127
604.518	87.96214745
604.71	87.9661435
604.902	87.97435482
605.094	87.98536265
605.286	87.99693236
605.478	88.0083227
605.67	88.01636956
605.862	88.03085746
606.054	88.03990571
606.246	88.04726338
606.437	88.0599653
606.629	88.07139378
606.821	88.0840775
607.013	88.09882716
607.205	88.10109141
607.397	88.11639925
607.588	88.12768609
607.78	88.13913171
607.972	88.14427006
608.164	88.15510561
608.355	88.16044568
608.547	88.16737407
608.739	88.18079206
608.93	88.19087966
609.122	88.20026221
609.314	88.2054721
609.505	88.21082501
609.697	88.2251176
609.889	88.23211535
610.08	88.24385694
610.272	88.24934074
610.463	88.24488534
610.655	88.25608757
610.847	88.25698616
611.038	88.26658393
611.23	88.27830792
611.421	88.28957754
611.613	88.28640935
611.804	88.28388001
611.996	88.29222476
612.187	88.29850262
612.379	88.31157345
612.57	88.32414937
612.761	88.32947313
612.953	88.34126413
613.144	88.34306062
613.336	88.35313009
613.527	88.36554198
613.718	88.37122209
613.91	88.3774442
614.101	88.38356323
614.292	88.39962409
614.483	88.40773739
614.675	88.40975681
614.866	88.42196292
615.057	88.42478502
615.248	88.43079533
615.44	88.41878619
615.631	88.42523776
615.822	88.44039871
616.013	88.44812943
616.204	88.44830877
616.396	88.45335713
616.587	88.45402408
616.778	88.46624345
616.969	88.46272236
617.16	88.47209249
617.351	88.47759303
617.542	88.48519755
617.733	88.4886036
617.924	88.49281826
618.115	88.4978667
618.306	88.49187614
618.497	88.49550408
618.688	88.50705224
618.879	88.51190349
619.07	88.51880301
619.261	88.52561002
619.452	88.54828207
619.643	88.55285866
619.834	88.56437411
620.025	88.55942979
620.216	88.56893427
620.407	88.57406921
620.597	88.58223822
620.788	88.58078327
620.979	88.5928527
621.17	88.5945847
621.361	88.59945357
621.551	88.60086752
621.742	88.61326915
621.933	88.62626634
622.124	88.632051
622.314	88.64690329
622.505	88.6572227
622.696	88.65818413
622.886	88.66206707
623.077	88.66618944
623.268	88.67053727
623.458	88.66892883
623.649	88.6779288
623.84	88.67253605
624.03	88.69184004
624.221	88.69973697
624.411	88.70598502
624.602	88.71473411
624.792	88.72614973
624.983	88.73030983
625.173	88.73787536
625.364	88.74853506
625.554	88.76052956
625.745	88.75817492
625.935	88.75950681
626.126	88.75898661
626.316	88.76812262
626.507	88.77478606
626.697	88.78957491
626.887	88.79251671
627.078	88.79420077
627.268	88.79932051
627.458	88.81048264
627.649	88.82617197
627.839	88.83821471
628.029	88.83965005
628.22	88.84459488
628.41	88.85492647
628.6	88.85968189
628.79	88.86720838
628.981	88.87366013
629.171	88.88168816
629.361	88.88657863
629.551	88.88596346
629.741	88.89757535
629.932	88.90189215
630.122	88.91726826
630.312	88.91483486
630.502	88.91851302
630.692	88.91349336
630.882	88.92301748
631.072	88.93653007
631.262	88.95100729
631.452	88.94783608
631.642	88.94905268
631.832	88.95079285
632.022	88.96907087
632.212	88.97581902
632.402	88.97814866
632.592	88.98830229
632.782	88.99472482
632.972	89.0039867
633.162	89.02389319
633.352	89.03235743
633.542	89.04347126
633.732	89.04688204
633.922	89.05276521
634.111	89.06529511
634.301	89.07809
634.491	89.0874504
634.681	89.10473271
634.871	89.11542877
635.06	89.1230154
635.25	89.12897359
635.44	89.13928876
635.63	89.14776456
635.819	89.16331839
636.009	89.170203
636.199	89.17768973
636.388	89.17861542
636.578	89.1883577
636.768	89.19283815
636.957	89.20392
637.147	89.2050399
637.337	89.20909703
637.526	89.22482346
637.716	89.23769552
637.905	89.25205997
638.095	89.25705743
638.284	89.27176094
638.474	89.29144
638.663	89.30309943
638.853	89.30978383
639.042	89.32903684
639.232	89.33432753
639.421	89.3489624
639.611	89.35484227
639.8	89.36207647
639.99	89.36294363
640.179	89.37428335
640.368	89.38382263
640.558	89.39039274
640.747	89.40435794
640.936	89.41217519
641.126	89.41396931
641.315	89.41838321
641.504	89.41934188
641.694	89.42767936
641.883	89.44593466
642.072	89.45769334
642.261	89.45838848
642.451	89.463436
642.64	89.45915438
642.829	89.47164972
643.018	89.4618939
643.207	89.47888048
643.397	89.47758478
643.586	89.48733042
643.775	89.50260394
643.964	89.51995692
644.153	89.52162795
644.342	89.53696607
644.531	89.54951897
644.72	89.55313574
644.909	89.56035525
645.098	89.56772921
645.287	89.5843796
645.476	89.59372257
645.665	89.60408521
645.854	89.6031243
646.043	89.60207274
646.232	89.60642954
646.421	89.60145663
646.61	89.61552976
646.799	89.62035218
646.988	89.63762741
647.177	89.63583263
647.365	89.65620722
647.554	89.66775524
647.743	89.67337104
647.932	89.67661851
648.121	89.69252893
648.309	89.69648056
648.498	89.69793133
648.687	89.70132263
648.876	89.70913879
649.064	89.72158688
649.253	89.72988633
649.442	89.74316112
649.63	89.75084686
649.819	89.75210974
650.008	89.76420826
650.196	89.77186728
650.385	89.78648397
650.574	89.80038749
650.762	89.81294894
650.951	89.82068124
651.139	89.82999191
651.328	89.83269149
651.516	89.84177169
651.705	89.84624219
651.893	89.85541635
652.082	89.8595667
652.27	89.8725962
652.459	89.87524061
652.647	89.89074737
652.836	89.90304342
653.024	89.91064378
653.213	89.9105895
653.401	89.9119255
653.589	89.91099459
653.778	89.92221841
653.966	89.92087137
654.154	89.93225851
654.343	89.93956111
654.531	89.93968973
654.719	89.93357414
654.908	89.94733208
655.096	89.9497765
655.284	89.9539327
655.472	89.95238372
655.661	89.95051917
655.849	89.9511409
656.037	89.94950581
656.225	89.95405486
656.413	89.96304191
656.601	89.96501407
656.79	89.96284989
656.978	89.97284679
657.166	89.97805617
657.354	89.98457649
657.542	89.99423164
657.73	90.002578
657.918	90.00334539
658.106	89.99978771
658.294	90.01089893
658.482	90.02016091
658.67	90.04281988
658.858	90.02660536
659.046	90.02410045
659.234	90.02571546
659.422	90.03476003
659.61	90.04350202
659.798	90.04775202
659.986	90.06496985
660.173	90.07553358
660.361	90.0797033
660.549	90.0810862
660.737	90.08339441
660.925	90.08402109
661.113	90.08439426
661.3	90.08240858
661.488	90.08945621
661.676	90.09138499
661.864	90.10845286
662.051	90.12180228
662.239	90.11604699
662.427	90.10965269
662.614	90.10350494
662.802	90.12373232
662.99	90.14527417
663.177	90.15796596
663.365	90.16605467
663.553	90.17447651
663.74	90.1716172
663.928	90.16958714
664.115	90.16309626
664.303	90.16445243
664.49	90.16432868
664.678	90.16320701
664.866	90.17151555
665.053	90.18385945
665.24	90.18487273
665.428	90.18308147
665.615	90.19134545
665.803	90.19208016
665.99	90.19722025
666.178	90.19774411
666.365	90.19886583
666.552	90.19626708
666.74	90.189624
666.927	90.17368628
667.114	90.17253792
667.302	90.16882597
667.489	90.16483342
667.676	90.16741035
667.864	90.16595534
668.051	90.17641085
668.238	90.18982284
668.425	90.18926992
668.613	90.1998999
668.8	90.19206184
668.987	90.19191766
669.174	90.19572352
669.361	90.20024309
669.548	90.19498002
669.736	90.20248413
669.923	90.18742368
670.11	90.19458039
670.297	90.19681341
670.484	90.2086928
670.671	90.22062801
670.858	90.23927394
671.045	90.24194868
671.232	90.25288861
671.419	90.25659339
671.606	90.26157678
671.793	90.26575278
671.98	90.26414882
672.167	90.25530119
672.354	90.27108489
672.541	90.26968139
672.728	90.27172115
672.915	90.28009367
673.101	90.28856828
673.288	90.28855149
673.475	90.29714672
673.662	90.29009614
673.849	90.30572472
674.035	90.30888525
674.222	90.3173152
674.409	90.31853578
674.596	90.31970813
674.783	90.31911918
674.969	90.33040284
675.156	90.33166358
675.343	90.34082373
675.529	90.33449166
675.716	90.33746034
675.903	90.34023107
676.089	90.34604428
676.276	90.34786227
676.462	90.36098919
676.649	90.37443096
676.836	90.36303627
677.022	90.364764
677.209	90.37341643
677.395	90.37043449
677.582	90.36798221
677.768	90.37087655
677.955	90.37519719
678.141	90.39110311
678.328	90.39240267
678.514	90.39105148
678.701	90.39309795
678.887	90.39169863
679.073	90.39402692
679.26	90.39026784
679.446	90.40762489
679.632	90.41029463
679.819	90.43149494
680.005	90.43455091
680.191	90.44817032
680.378	90.45158108
680.564	90.45625042
680.75	90.46476428
680.936	90.47293275
681.123	90.47604904
681.309	90.470578
681.495	90.49653826
681.681	90.50444036
681.867	90.5018651
682.054	90.49036483
682.24	90.50414753
682.426	90.51992223
682.612	90.52779061
682.798	90.5187204
682.984	90.51374873
683.17	90.51856529
683.356	90.52061222
683.542	90.52594999
683.728	90.51122645
683.914	90.51483972
684.1	90.51032237
684.286	90.50553871
684.472	90.50353979
684.658	90.5170331
684.844	90.51717647
685.03	90.52913107
685.216	90.54355749
685.402	90.53762808
685.588	90.54363517
685.774	90.54775016
685.96	90.55993476
686.145	90.55673648
686.331	90.55317095
686.517	90.54705649
686.703	90.55218399
686.889	90.55781169
687.074	90.56496093
687.26	90.56611252
687.446	90.56779514
687.631	90.5782151
687.817	90.56765614
688.003	90.56537808
688.189	90.56858731
688.374	90.56387368
688.56	90.57461609
688.745	90.57098064
688.931	90.56954155
689.117	90.57131293
689.302	90.56586924
689.488	90.55788581
689.673	90.57360236
689.859	90.56377023
690.044	90.56058606
690.23	90.54887284
690.415	90.55171937
690.601	90.56841372
690.786	90.56439708
690.972	90.55518179
691.157	90.5591635
691.343	90.56445197
691.528	90.54684472
691.713	90.55106357
691.899	90.54505474
692.084	90.54882951
692.269	90.5611734
692.455	90.53946773
692.64	90.53791213
692.825	90.52182859
693.011	90.52254575
693.196	90.51915546
693.381	90.52736267
693.566	90.52623429
693.752	90.53171547
693.937	90.53038154
694.122	90.52688926
694.307	90.52543901
694.492	90.50320237
694.678	90.49599008
694.863	90.50002213
695.048	90.50696496
695.233	90.49282752
695.418	90.48116223
695.603	90.49003827
695.788	90.49559363
695.973	90.48493909
696.158	90.47711781
696.343	90.47326939
696.528	90.48277687
696.713	90.48764927
696.898	90.48505571
697.083	90.48307379
697.268	90.46978406
697.453	90.45185321
697.638	90.45284117
697.823	90.44629342
698.008	90.44641355
698.192	90.41995773
698.377	90.42723398
698.562	90.43421526
698.747	90.42922314
698.932	90.41331726
699.117	90.41969371
699.301	90.43176059
699.486	90.42509726
699.671	90.40674629
699.856	90.41204026
700.04	90.4092274
700.225	90.40889996
700.41	90.38685071
700.594	90.36718673
700.779	90.35809904
700.964	90.35504661
701.148	90.33899555
701.333	90.33085298
701.517	90.31616562
701.702	90.30832195
701.887	90.29443545
702.071	90.30842799
702.256	90.29345498
702.44	90.29034245
702.625	90.27435714
702.809	90.27432264
702.994	90.26495966
703.178	90.25460005
703.362	90.24149625
703.547	90.25082263
703.731	90.22706393
703.916	90.22257332
704.1	90.21856461
704.284	90.2169035
704.469	90.22328457
704.653	90.20113314
704.837	90.19964178
705.022	90.20309916
705.206	90.19847338
705.39	90.19050031
705.575	90.17725181
705.759	90.18055941
705.943	90.16101211
706.127	90.14534155
706.311	90.12412206
706.496	90.1177318
706.68	90.09487688
706.864	90.08345451
707.048	90.07255768
707.232	90.07558885
707.416	90.05840703
707.6	90.05319184
707.785	90.04297314
707.969	90.03092489
708.153	90.01877439
708.337	89.99869512
708.521	90.00577043
708.705	89.98950485
708.889	89.97567665
709.073	89.96776978
709.257	89.96518165
709.441	89.96995581
709.624	89.96444516
709.808	89.96365598
709.992	89.97030091
710.176	89.96960735
710.36	89.96129086
710.544	89.96091583
710.728	89.94824303
710.912	89.95533647
711.095	89.94390785
711.279	89.95237948
711.463	89.96003984
711.647	89.95146199
711.83	89.94873369
712.014	89.95168434
712.198	89.95247919
712.382	89.94523703
712.565	89.93579149
712.749	89.94983404
712.933	89.93821458
713.116	89.93482226
713.3	89.91782286
713.483	89.91452756
713.667	89.92290261
713.851	89.90834958
714.034	89.89899474
714.218	89.89739172
714.401	89.88778971
714.585	89.88672491
714.768	89.87938345
714.952	89.86703028
715.135	89.83641473
715.319	89.82263964
715.502	89.82367007
715.686	89.83235719
715.869	89.82279413
716.052	89.8232909
716.236	89.81405685
716.419	89.81531914
716.602	89.79325799
716.786	89.78151973
716.969	89.77551857
717.152	89.78770714
717.336	89.78345601
717.519	89.76393539
717.702	89.76596003
717.885	89.76762279
718.069	89.76266326
718.252	89.76126484
718.435	89.76106686
718.618	89.74273905
718.801	89.71557517
718.985	89.7155432
719.168	89.70593336
719.351	89.69028663
719.534	89.66467333
719.717	89.66009699
719.9	89.64469828
720.083	89.64836205
720.266	89.63862121
720.449	89.63926157
720.632	89.64845202
720.815	89.64299572
720.998	89.61255664
721.181	89.61072687
721.364	89.61019355
721.547	89.60417242
721.73	89.59144694
721.913	89.57964611
722.096	89.57173429
722.279	89.55824268
722.461	89.55536625
722.644	89.56528445
722.827	89.56570952
723.01	89.56285339
723.193	89.56713663
723.376	89.56762974
723.558	89.56236481
723.741	89.55224816
723.924	89.55439747
724.107	89.53153578
724.289	89.5207634
724.472	89.51273431
724.655	89.48820021
724.837	89.50147701
725.02	89.46442606
725.203	89.45593926
725.385	89.44281733
725.568	89.42867543
725.75	89.42050475
725.933	89.41951442
726.115	89.40871608
726.298	89.40067457
726.481	89.39309916
726.663	89.38768813
726.845	89.370326
727.028	89.3591267
727.21	89.35686097
727.393	89.36427715
727.575	89.36596534
727.758	89.35279538
727.94	89.36888416
728.122	89.36236576
728.305	89.36299311
728.487	89.37234106
728.67	89.35519461
728.852	89.3580832
729.034	89.34273618
729.216	89.33744241
729.399	89.34637055
729.581	89.35911762
729.763	89.35113553
729.945	89.3590751
730.128	89.35368736
730.31	89.35153433
730.492	89.34487007
730.674	89.35017236
730.856	89.35100643
731.039	89.34052695
731.221	89.32314029
731.403	89.32638157
731.585	89.31518139
731.767	89.30554701
731.949	89.30034965
732.131	89.29695654
732.313	89.28141123
732.495	89.27988584
732.677	89.27972275
732.859	89.28399555
733.041	89.29038394
733.223	89.28370874
733.405	89.2681586
733.587	89.26260597
733.769	89.24444416
733.951	89.24793626
734.132	89.24619504
734.314	89.24511008
734.496	89.22864395
734.678	89.22585106
734.86	89.2210643
735.042	89.22070504
735.223	89.21152772
735.405	89.2134949
735.587	89.20653719
735.769	89.2109766
735.95	89.19524637
736.132	89.19500195
736.314	89.191052
736.495	89.18984537
736.677	89.18205063
736.859	89.17586612
737.04	89.17533845
737.222	89.16660856
737.403	89.15563409
737.585	89.17030408
737.767	89.15857308
737.948	89.15537615
738.13	89.14170913
738.311	89.15088488
738.493	89.13462055
738.674	89.13138498
738.856	89.12687875
739.037	89.11852086
739.219	89.11871677
739.4	89.12197308
739.581	89.11233721
739.763	89.11760076
739.944	89.11451478
740.125	89.12208551
740.307	89.12453344
740.488	89.13106241
740.669	89.11644998
740.851	89.10281511
741.032	89.1127865
741.213	89.11005484
741.395	89.10564531
741.576	89.10667377
741.757	89.10227782
741.938	89.10931912
742.119	89.10802658
742.301	89.10052726
742.482	89.09612728
742.663	89.08278634
742.844	89.09059583
743.025	89.07923841
743.206	89.07902789
743.387	89.07507201
743.568	89.07037875
743.749	89.07113213
743.93	89.05694294
744.111	89.05745575
744.292	89.04357754
744.473	89.05329918
744.654	89.06547005
744.835	89.06658903
745.016	89.07455694
745.197	89.06230231
745.378	89.05501847
745.559	89.05712703
745.74	89.04632949
745.921	89.05822083
746.102	89.06412799
746.282	89.07253797
746.463	89.06874987
746.644	89.05540377
746.825	89.05546107
747.006	89.04675197
747.186	89.04889024
747.367	89.04399356
747.548	89.03946941
747.728	89.0531876
747.909	89.04962223
748.09	89.0578086
748.27	89.05783777
748.451	89.04976092
748.632	89.032946
748.812	89.03176189
748.993	89.03343475
749.173	89.03440766
749.354	89.03717084
749.535	89.05274402
749.715	89.04393968
749.896	89.04103544
750.076	89.0345566
750.257	89.06039098
750.437	89.07159444
750.618	89.07115773
750.798	89.07130363
750.978	89.07078701
751.159	89.07266729
751.339	89.08796218
751.52	89.07125736
751.7	89.07570791
751.88	89.07754418
752.061	89.08066779
752.241	89.08855122
752.421	89.09533828
752.601	89.0988416
752.782	89.10649306
752.962	89.12173891
753.142	89.13434825
753.322	89.12721474
753.503	89.1259709
753.683	89.13830855
753.863	89.13918808
754.043	89.13658854
754.223	89.13929426
754.403	89.1363097
754.583	89.14406277
754.764	89.15795245
754.944	89.17619301
755.124	89.17343775
755.304	89.1846185
755.484	89.1902323
755.664	89.18638182
755.844	89.18691161
756.024	89.18685946
756.204	89.20373871
756.384	89.19696797
756.564	89.20028491
756.743	89.18412559
756.923	89.17131779
757.103	89.16515559
757.283	89.16744494
757.463	89.15644493
757.643	89.16809335
757.823	89.16566572
758.002	89.16237771
758.182	89.17149775
758.362	89.15548113
758.542	89.14537969
758.721	89.13381182
758.901	89.12535997
759.081	89.12970861
759.261	89.11235558
759.44	89.12263499
759.62	89.12536515
759.8	89.12000549
759.979	89.10580731
760.159	89.11214617
760.338	89.09869239
760.518	89.1053937
760.698	89.10531521
760.877	89.11718058
761.057	89.10917197
761.236	89.11588111
761.416	89.10409725
761.595	89.08669955
761.775	89.07839762
761.954	89.08316117
762.133	89.08349862
762.313	89.07332196
762.492	89.05885927
762.672	89.08206582
762.851	89.07268829
763.03	89.08250809
763.21	89.07423813
763.389	89.07094313
763.568	89.06170155
763.748	89.05530083
763.927	89.06577834
764.106	89.07338096
764.286	89.07874707
764.465	89.05959428
764.644	89.04300283
764.823	89.04609417
765.002	89.03613936
765.182	89.02898098
765.361	89.03901373
765.54	89.05423602
765.719	89.04680063
765.898	89.03686892
766.077	89.04100841
766.256	89.04475035
766.435	89.03568128
766.614	89.033242
766.793	89.02024633
766.972	89.01275217
767.151	88.99092282
767.33	88.9839686
767.509	88.98832714
767.688	88.97850874
767.867	88.97822733
768.046	88.95681572
768.225	88.96157549
768.404	88.96895553
768.583	88.97276515
768.762	88.98084562
768.94	88.9787112
769.119	88.9682808
769.298	88.94763981
769.477	88.9468915
769.656	88.95563005
769.834	88.961846
770.013	88.95879454
770.192	88.93170515
770.37	88.92406862
770.549	88.92511412
770.728	88.92692667
770.906	88.93299381
771.085	88.92939452
771.264	88.92222658
771.442	88.92288543
771.621	88.92731698
771.799	88.93405238
771.978	88.94221905
772.157	88.94471147
772.335	88.93068558
772.514	88.92287317
772.692	88.92939687
772.871	88.92766314
773.049	88.92735182
773.228	88.92074241
773.406	88.91624154
773.584	88.90323586
773.763	88.90917909
773.941	88.92406929
774.119	88.91752611
774.298	88.92546424
774.476	88.92592151
774.655	88.93837398
774.833	88.94182201
775.011	88.94953458
775.189	88.9444091
775.368	88.93159067
775.546	88.92420291
775.724	88.91531345
775.902	88.89703455
776.08	88.89932126
776.259	88.8885108
776.437	88.88502663
776.615	88.88203824
776.793	88.88870722
776.971	88.90097215
777.149	88.89809987
777.327	88.88881111
777.505	88.87043673
777.683	88.87162998
777.861	88.88959526
778.04	88.86973631
778.218	88.87390288
778.395	88.86943644
778.573	88.87782219
778.751	88.86894841
778.929	88.86311663
779.107	88.85387117
779.285	88.85999063
779.463	88.86494303
779.641	88.87247878
779.819	88.87290526
779.997	88.8918084
780.174	88.88889416
780.352	88.88320662
780.53	88.87610398
780.708	88.87423152
780.886	88.88134718
781.063	88.88317658
781.241	88.8820769
781.419	88.87380767
781.596	88.86169011
781.774	88.8655524
781.952	88.84896638
782.129	88.83216666
782.307	88.82264219
782.485	88.82304073
782.662	88.82201254
782.84	88.83191514
783.017	88.82227922
783.195	88.81750737
783.372	88.82498475
783.55	88.81858084
783.727	88.81075614
783.905	88.80657077
784.082	88.7979503
784.26	88.79867126
784.437	88.7809961
784.615	88.78853623
784.792	88.78805563
784.969	88.79743981
785.147	88.79758701
785.324	88.79722838
785.501	88.7945607
785.679	88.80733207
785.856	88.82144325
786.033	88.82656567
786.211	88.82651533
786.388	88.82476756
786.565	88.81410682
786.742	88.82106915
786.92	88.81840927
787.097	88.81145045
787.274	88.78692778
787.451	88.78921785
787.628	88.8034499
787.805	88.80737914
787.982	88.80316333
788.16	88.7985848
788.337	88.79837904
788.514	88.79369215
788.691	88.78486734
788.868	88.79080138
789.045	88.79920108
789.222	88.79089772
789.399	88.79300726
789.576	88.78064168
789.753	88.77120571
789.93	88.76735608
790.106	88.7577655
790.283	88.76669578
790.46	88.77777101
790.637	88.78235881
790.814	88.77842424
790.991	88.80157651
791.168	88.77430081
791.344	88.76278355
791.521	88.75527365
791.698	88.75881356
791.875	88.77389576
792.051	88.74816223
792.228	88.76341516
792.405	88.78357817
792.581	88.77010108
792.758	88.77053686
792.935	88.77041881
793.111	88.75296919
793.288	88.74366619
793.465	88.74364783
793.641	88.75293179
793.818	88.75705627
793.994	88.74622217
794.171	88.72989695
794.347	88.72098947
794.524	88.71867248
794.7	88.72275318
794.877	88.72289753
795.053	88.71407322
795.23	88.71248828
795.406	88.69777898
795.583	88.67090094
795.759	88.66895462
795.935	88.65133694
796.112	88.63877784
796.288	88.63057633
796.464	88.60720223
796.641	88.60167422
796.817	88.61736287
796.993	88.63321127
797.169	88.63552718
797.346	88.61364939
797.522	88.59607349
797.698	88.57236079
797.874	88.563873
798.051	88.55286244
798.227	88.5346655
798.403	88.53400728
798.579	88.54438255
798.755	88.54125614
798.931	88.55451685
799.107	88.56106627
799.283	88.56127611
799.459	88.56839874
799.635	88.56349288
799.811	88.56851545
799.987	88.57573688
800.163	88.58143256
800.339	88.60921607
800.515	88.61468645
800.691	88.59447477
800.867	88.59869182
801.043	88.60787965
801.219	88.63560861
801.395	88.64182543
801.571	88.6526173
801.746	88.66176691
801.922	88.65849827
802.098	88.6421754
802.274	88.62648209
802.45	88.61717925
802.625	88.60276848
802.801	88.59614924
802.977	88.59262402
803.152	88.58988447
803.328	88.60480001
803.504	88.58601409
803.679	88.55955786
803.855	88.58652536
804.031	88.58333018
804.206	88.55259431
804.382	88.57641023
804.557	88.55870564
804.733	88.55191156
804.909	88.54424707
805.084	88.54624543
805.26	88.5469188
805.435	88.54791453
805.61	88.57389419
805.786	88.55385987
805.961	88.58836185
806.137	88.6038069
806.312	88.60206338
806.488	88.60012628
806.663	88.61285898
806.838	88.60042832
807.014	88.59011044
807.189	88.60925022
807.364	88.6245139
807.54	88.58686748
807.715	88.56863128
807.89	88.57850018
808.065	88.57858793
808.241	88.58889712
808.416	88.59531047
808.591	88.59124914
808.766	88.59449598
808.941	88.59261944
809.116	88.59555759
809.291	88.58903019
809.467	88.61424111
809.642	88.58557697
809.817	88.57391426
809.992	88.58717444
810.167	88.58220743
810.342	88.57286462
810.517	88.56908949
810.692	88.55922232
810.867	88.53649002
811.042	88.51305538
811.217	88.53565135
811.392	88.55575048
811.567	88.5570262
811.741	88.52956604
811.916	88.52975078
812.091	88.53597738
812.266	88.50589304
812.441	88.51100914
812.616	88.52778277
812.79	88.51934214
812.965	88.50955023
813.14	88.50252435
813.315	88.51105911
813.489	88.50793496
813.664	88.50988413
813.839	88.50055395
814.013	88.48899547
814.188	88.5042015
814.363	88.47364662
814.537	88.47380772
814.712	88.52429
814.887	88.47998057
815.061	88.45243351
815.236	88.43524471
815.41	88.43465157
815.585	88.43543662
815.759	88.40579741
815.934	88.42469182
816.108	88.40615745
816.283	88.37779756
816.457	88.35639681
816.631	88.32897274
816.806	88.31968098
816.98	88.31871865
817.155	88.28761984
817.329	88.2773216
817.503	88.28654154
817.678	88.30219401
817.852	88.31308546
818.026	88.33634276
818.201	88.35632868
818.375	88.3445718
818.549	88.36952299
818.723	88.38402909
818.897	88.3795568
819.072	88.37344696
819.246	88.33872939
819.42	88.30972932
819.594	88.28968064
819.768	88.31987758
819.942	88.31066572
820.116	88.30232967
820.29	88.34271438
820.465	88.34241662
820.639	88.30480749
820.813	88.32479435
820.987	88.32016277
821.161	88.31234716
821.335	88.29699359
821.509	88.29424145
821.682	88.29583294
821.856	88.26595481
822.03	88.25939801
822.204	88.2444234
822.378	88.21564355
822.552	88.22303936
822.726	88.22646126
822.9	88.23288854
823.073	88.27236836
823.247	88.26744778
823.421	88.23045907
823.595	88.20601554
823.768	88.18808595
823.942	88.16334285
824.116	88.16522638
824.289	88.16433497
824.463	88.15966138
824.637	88.2109017
824.81	88.20123825
824.984	88.20957545
825.158	88.18873756
825.331	88.16437859
825.505	88.14305812
825.678	88.15530979
825.852	88.16615747
826.025	88.14684051
826.199	88.10374806
826.372	88.09312187
826.546	88.07054159
826.719	88.05906829
826.893	88.06698406
827.066	88.06432699
827.24	88.10810604
827.413	88.11969335
827.586	88.13973669
827.76	88.1025347
827.933	88.10310566
828.106	88.13879379
828.28	88.09671418
828.453	88.10488511
828.626	88.13368204
828.799	88.16011775
828.973	88.19086857
829.146	88.21430749
829.319	88.21266916
829.492	88.22910658
829.665	88.27622233
829.839	88.33323424
830.012	88.33882129
830.185	88.37120905
830.358	88.38063959
830.531	88.37794973
830.704	88.35026956
830.877	88.32886882
831.05	88.34732746
831.223	88.30284228
831.396	88.33908335
831.569	88.33002517
831.742	88.33798226
831.915	88.31584496
832.088	88.28915354
832.261	88.27761511
832.434	88.26594872
832.607	88.24139777
832.779	88.20927585
832.952	88.18547636
833.125	88.17371623
833.298	88.13388584
833.471	88.08442444
833.643	88.08286257
833.816	88.10589153
833.989	88.10176707
834.162	88.10101807
834.334	88.13518472
834.507	88.13261672
834.68	88.14664608
834.852	88.186769
835.025	88.17554122
835.198	88.23242634
835.37	88.18890933
835.543	88.1675703
835.715	88.21728918
835.888	88.22064392
836.061	88.18322555
836.233	88.19035402
836.406	88.18262386
836.578	88.15757792
836.751	88.12854372
836.923	88.16173586
837.095	88.21059907
837.268	88.15592694
837.44	88.12353629
837.613	88.07538182
837.785	88.04948184
837.957	88.03111928
838.13	88.01482119
838.302	88.02203225
838.474	88.00049059
838.647	87.99605109
838.819	87.93738053
838.991	87.96370047
839.163	87.99675782
839.336	87.95473555
839.508	87.89471021
839.68	87.88678718
839.852	87.8797195
840.024	87.82799237
840.196	87.85102348
840.368	87.83182827
840.541	87.77747373
840.713	87.72359629
840.885	87.72984866
841.057	87.72681049
841.229	87.80607446
841.401	87.85543298
841.573	87.85805509
841.745	87.8565429
841.917	87.82398682
842.089	87.829959
842.261	87.79602783
842.432	87.82189877
842.604	87.78971136
842.776	87.75892844
842.948	87.75551755
843.12	87.75866536
843.292	87.78067402
843.464	87.7762099
843.635	87.82854682
843.807	87.76636697
843.979	87.82596958
844.151	87.78859033
844.322	87.81373211
844.494	87.87339904
844.666	87.86596208
844.837	87.85700072
845.009	87.80271944
845.181	87.83327819
845.352	87.86127102
845.524	87.79855928
845.695	87.77895546
845.867	87.84430034
846.039	87.84689667
846.21	87.84652278
846.382	87.82171562
846.553	87.78582666
846.725	87.81741691
846.896	87.83143157
847.068	87.86691203
847.239	87.88086079
847.41	87.89894369
847.582	87.81519406
847.753	87.86863889
847.925	87.79866544
848.096	87.75255525
848.267	87.7992672
848.439	87.71512283
848.61	87.70293107
848.781	87.72720549
848.952	87.68835655
849.124	87.74083181
849.295	87.7027475
849.466	87.63557387
849.637	87.61804738
849.808	87.54136741
849.98	87.5316983
850.151	87.57325774
850.322	87.55685841
850.493	87.56762647
850.664	87.52349458
850.835	87.51900061
851.006	87.50349681
851.177	87.5065803
851.348	87.48910468
851.519	87.53551733
851.69	87.51700067
851.861	87.44256068
852.032	87.43743264
852.203	87.52962272
852.374	87.47880888
852.545	87.48897648
852.716	87.48223619
852.887	87.52985175
853.057	87.55955558
853.228	87.59042908
853.399	87.64232001
853.57	87.69874018
853.741	87.5952732
853.911	87.58416915
854.082	87.59118945
854.253	87.61403027
854.424	87.63355234
854.594	87.70860954
854.765	87.84427436
854.936	87.90021532
855.106	87.87551493
855.277	87.94878286
855.447	87.94031666
855.618	87.94729124
855.789	87.85131808
855.959	87.83813316
856.13	87.88789201
856.3	87.80613139
856.471	87.77044431
856.641	87.72535912
856.812	87.63892053
856.982	87.64979913
857.153	87.68292719
857.323	87.75495602
857.493	87.65691601
857.664	87.61184032
857.834	87.5701243
858.004	87.60490199
858.175	87.64009215
858.345	87.55087405
858.515	87.47239867
858.686	87.54049014
858.856	87.58591538
859.026	87.66027351
859.196	87.65731456
859.367	87.68981586
859.537	87.75734067
859.707	87.60666548
859.877	87.69985087
860.047	87.77643103
860.217	87.85660994
860.387	87.94570398
860.558	87.86134207
860.728	87.82052873
860.898	87.84581422
861.068	87.92685387
861.238	87.97032227
861.408	87.93507487
861.578	87.77663049
861.748	87.6847512
861.918	87.68384409
862.088	87.65998682
862.257	87.58322975
862.427	87.43575922
862.597	87.35255659
862.767	87.40584119
862.937	87.33784073
863.107	87.31556574
863.277	87.34935425
863.446	87.37589222
863.616	87.32366044
863.786	87.31330578
863.956	87.20616091
864.125	87.3432927
864.295	87.37223173
864.465	87.4161446
864.634	87.42125556
864.804	87.33411416
864.974	87.4550712
865.143	87.61211047
865.313	87.57888268
865.482	87.56320294
865.652	87.61655265
865.822	87.65270326
865.991	87.64379399
866.161	87.58198608
866.33	87.49929465
866.5	87.51477672
866.669	87.51818579
866.838	87.5263563
867.008	87.42702218
867.177	87.36553624
867.347	87.25867558
867.516	87.27826074
867.685	87.10986495
867.855	87.01520396
868.024	86.99319889
868.193	86.99378221
868.363	87.0534553
868.532	86.89886924
868.701	86.75102052
868.87	86.71807843
869.04	86.62952203
869.209	86.55777466
869.378	86.55958703
869.547	86.61483558
869.716	86.55302896
869.885	86.59866576
870.055	86.54000779
870.224	86.51826485
870.393	86.48018283
870.562	86.49047225
870.731	86.54262335
870.9	86.62328946
871.069	86.62739866
871.238	86.68303324
871.407	86.66779049
871.576	86.53686556
871.745	86.59281003
871.914	86.4668187
872.083	86.49371068
872.251	86.59132201
872.42	86.61990295
872.589	86.57680441
872.758	86.62529744
872.927	86.54968732
873.096	86.50517296
873.264	86.77309198
873.433	86.73146998
873.602	86.85160043
873.771	86.84490833
873.939	86.82209517
874.108	86.79130318
874.277	86.61788437
874.445	86.58652029
874.614	86.67279493
874.783	86.68859569
874.951	86.73919935
875.12	86.8406933
875.288	86.73141411
875.457	86.84500048
875.625	86.86322163
875.794	86.82753418
875.962	86.69413239
876.131	86.66629789
876.299	86.58964495
876.468	86.58669037
876.636	86.56065943
876.805	86.47946159
876.973	86.42050571
877.141	86.37151045
877.31	86.23374462
877.478	86.26658796
877.647	86.29009448
877.815	86.40129934
877.983	86.31126529
878.151	86.10585705
878.32	86.10863007
878.488	85.97452871
878.656	85.9864412
878.824	86.04973826
878.992	85.74127099
879.161	85.79893483
879.329	85.76427698
879.497	85.84637358
879.665	86.00445673
879.833	86.21133132
880.001	86.23754305
880.169	86.19793407
880.337	86.20602235
880.505	86.27226708
880.673	86.18619259
880.841	86.2380625
881.009	86.15005121
881.177	86.00633542
881.345	85.97838382
881.513	86.03121035
881.681	86.09827369
881.849	85.86039124
882.017	86.09456904
882.185	86.02457864
882.352	85.88099711
882.52	86.09831097
882.688	85.95492881
882.856	85.81755123
883.024	85.76409962
883.191	85.75067865
883.359	85.55175747
883.527	85.44560468
883.694	85.54377055
883.862	85.13343699
884.03	85.01519619
884.197	85.08554831
884.365	85.11488116
884.533	85.19670343
884.7	85.15571937
884.868	85.09786039
885.035	85.08401082
885.203	85.06432644
885.37	85.25495177
885.538	85.0106697
885.705	84.9835077
885.873	85.00918654
886.04	84.96940394
886.208	85.03254543
886.375	85.17722828
886.542	85.29088801
886.71	84.99472353
886.877	84.97981757
