Data from pano_Reflection_00002.txt Node
Date: Thu Apr 11 13:46:34 AEST 2024
User: uqkchene_local
Spectrometer: USB4E02642
Trigger mode: 4
Integration Time (sec): 2.541000E-2
Scans to average: 101
Electric dark correction enabled: true
Nonlinearity correction enabled: false
Boxcar width: 10
XAxis mode: Wavelengths
Number of Pixels in Spectrum: 3648
>>>>>Begin Spectral Data<<<<<
179.217	194.7645951
179.432	120.62430323
179.647	157.34549139
179.862	127.33333333
180.077	113.8739619
180.293	66.42874138
180.508	69.9028016
180.723	110.36889332
180.938	47.44817882
181.153	34.09034034
181.368	28.80465378
181.583	24.58097764
181.798	19.13173016
182.013	19.27862034
182.228	17.20218579
182.443	16.76486045
182.658	18.50302958
182.873	17.85056425
183.088	16.60713273
183.303	13.85169469
183.518	13.11521115
183.733	12.91558746
183.948	12.02578083
184.162	10.996845
184.377	11.1074418
184.592	10.73357958
184.807	10.78159291
185.022	9.86538653
185.237	9.41488532
185.452	8.79406078
185.667	7.78470255
185.882	6.13647419
186.096	6.3559799
186.311	6.11392418
186.526	5.12703298
186.741	5.22063711
186.956	4.8101007
187.17	3.20321458
187.385	2.37130932
187.6	2.51029189
187.815	2.81807092
188.03	2.4181902
188.244	3.25067194
188.459	3.58624748
188.674	3.63188268
188.889	3.047559
189.103	2.78111952
189.318	3.75292653
189.533	4.08169335
189.747	4.19377519
189.962	3.92299057
190.177	4.34487914
190.391	5.69774255
190.606	5.14470428
190.821	5.75626131
191.035	5.47904529
191.25	4.80997685
191.465	4.21146494
191.679	5.18748038
191.894	6.32629958
192.109	6.23618679
192.323	6.26410207
192.538	5.35291427
192.752	3.99052084
192.967	4.21583428
193.181	3.93783558
193.396	4.61765641
193.611	4.98788847
193.825	4.17707222
194.04	4.66254748
194.254	4.73759338
194.469	5.5476706
194.683	5.63548043
194.898	4.19259643
195.112	3.25323208
195.327	2.94470845
195.541	3.60027435
195.756	3.5716845
195.97	4.57540226
196.184	5.00885941
196.399	4.97193021
196.613	4.78429624
196.828	4.41340725
197.042	5.92245678
197.257	6.14951003
197.471	5.3660511
197.685	5.43007004
197.9	5.29859574
198.114	6.21106096
198.328	5.99161235
198.543	5.45302952
198.757	4.68634275
198.971	4.29691074
199.186	5.27222295
199.4	5.77648183
199.614	6.08304602
199.829	5.86961968
200.043	5.36272624
200.257	5.06580704
200.471	4.2698063
200.686	3.67573061
200.9	3.24881219
201.114	3.18242853
201.328	3.39593342
201.543	2.02837563
201.757	1.94210189
201.971	1.72787236
202.185	1.56190177
202.399	0.14342094
202.614	-1.4280766
202.828	-1.20422319
203.042	0.04953524
203.256	0.2698937
203.47	0.3115023
203.684	-0.59197969
203.899	-0.23680748
204.113	-0.09085314
204.327	1.06324099
204.541	0.59639022
204.755	1.4742425
204.969	1.86823992
205.183	2.86995079
205.397	2.64214341
205.611	3.4419558
205.825	4.14728415
206.039	4.60062094
206.253	5.03049222
206.467	4.87070169
206.681	5.14516546
206.895	6.47752974
207.109	7.56537311
207.323	7.90956792
207.537	7.10339606
207.751	7.45656571
207.965	7.61778871
208.179	7.49978782
208.393	7.60363308
208.607	7.39545053
208.821	6.80998266
209.035	7.15476969
209.249	6.32327047
209.463	5.75815215
209.677	4.20218525
209.891	3.81226282
210.104	2.65387616
210.318	2.25137129
210.532	2.32633893
210.746	2.77715019
210.96	4.26122242
211.174	3.61522333
211.387	3.67786649
211.601	3.16487491
211.815	2.66320868
212.029	1.91227588
212.243	1.59636526
212.456	0.84057777
212.67	1.45637932
212.884	1.15618412
213.098	1.7845515
213.311	2.07705604
213.525	1.81989539
213.739	3.70822037
213.953	4.07441791
214.166	4.12482301
214.38	4.56953704
214.594	5.75424182
214.807	5.43763707
215.021	5.04620703
215.235	4.76091378
215.448	3.43707202
215.662	4.22393976
215.876	3.96303065
216.089	4.33833509
216.303	4.33309172
216.516	4.56016747
216.73	4.82776354
216.944	5.58246008
217.157	4.70884419
217.371	5.45540067
217.584	5.16520566
217.798	3.90443154
218.011	3.95181378
218.225	2.41255515
218.439	1.89465532
218.652	2.09589965
218.866	1.20086235
219.079	0.77006696
219.293	1.00812174
219.506	1.61738485
219.719	1.50198779
219.933	1.8585943
220.146	1.20151109
220.36	0.4718889
220.573	0.81483663
220.787	1.10310892
221	1.55707024
221.214	1.80250154
221.427	0.19143486
221.64	0.65873992
221.854	-0.02100668
222.067	-0.26297351
222.28	-0.17448851
222.494	-1.15862496
222.707	-0.51331438
222.92	-0.14653134
223.134	0.22924527
223.347	1.57564058
223.56	1.86678094
223.774	2.17755144
223.987	3.38784734
224.2	3.81604435
224.414	3.59300192
224.627	4.47670631
224.84	5.30481569
225.053	5.61509931
225.267	5.83571511
225.48	5.08116176
225.693	5.01399938
225.906	6.64300158
226.119	6.35246082
226.333	6.16435338
226.546	6.11998043
226.759	6.54736973
226.972	8.21894774
227.185	7.6129078
227.398	7.71789575
227.612	7.24702715
227.825	6.50058949
228.038	6.4285008
228.251	5.9595111
228.464	4.99776763
228.677	4.45936467
228.89	5.32605077
229.103	4.5149819
229.316	4.49243079
229.529	3.92839293
229.743	3.38805194
229.956	3.82558618
230.169	3.34139189
230.382	2.79271466
230.595	2.38714122
230.808	2.21356211
231.021	2.15967803
231.234	2.92105869
231.447	2.76316152
231.66	3.03704853
231.872	3.38237827
232.085	4.53471767
232.298	4.48115947
232.511	3.95413313
232.724	4.43313889
232.937	4.06428819
233.15	3.61492879
233.363	3.14340606
233.576	3.48165746
233.789	2.41511515
234.002	2.53458476
234.214	2.38772886
234.427	2.022106
234.64	2.28905125
234.853	2.9920561
235.066	2.96791751
235.279	2.61778259
235.491	3.39829868
235.704	2.1840457
235.917	1.69003646
236.13	2.09117052
236.342	1.10624668
236.555	0.34704921
236.768	-0.37134906
236.981	-0.08136981
237.193	-0.9997794
237.406	-0.02539427
237.619	1.12134736
237.832	0.92380153
238.044	1.24875944
238.257	1.85442225
238.47	1.571953
238.682	2.12588437
238.895	1.43591229
239.108	2.07920876
239.32	1.16177134
239.533	1.48099796
239.746	1.39385001
239.958	1.27345092
240.171	2.09229005
240.383	1.9197511
240.596	1.18820266
240.808	2.3562434
241.021	1.81375133
241.234	2.717228
241.446	2.74355576
241.659	3.46595379
241.871	3.00595768
242.084	1.98333003
242.296	1.0887218
242.509	0.17595
242.721	0.60639904
242.934	0.57958636
243.146	-0.55243797
243.359	0.53277295
243.571	0.20730737
243.784	0.72261498
243.996	0.57533417
244.208	1.41347912
244.421	0.52880124
244.633	1.25013791
244.846	1.25555735
245.058	1.56930756
245.27	1.14514477
245.483	1.87567663
245.695	1.7113189
245.907	1.9384706
246.12	2.20468591
246.332	1.87641404
246.544	1.74825463
246.757	2.18920192
246.969	2.78676632
247.181	2.97496939
247.394	2.72678871
247.606	3.46597571
247.818	2.62529441
248.03	2.43714872
248.243	2.3436799
248.455	1.43646227
248.667	2.1874209
248.879	2.70059535
249.092	0.76666694
249.304	0.54753115
249.516	-0.05222538
249.728	-0.57016128
249.94	-0.92246779
250.153	-0.38277113
250.365	-1.19974953
250.577	-1.14127773
250.789	-0.89284978
251.001	-0.6569325
251.213	-0.50702188
251.425	0.1729891
251.637	-0.51312365
251.85	0.10644608
252.062	-0.23561418
252.274	0.96470303
252.486	1.36336884
252.698	1.35560064
252.91	2.24844471
253.122	1.45866837
253.334	1.14533291
253.546	2.15739799
253.758	2.31862019
253.97	2.70110489
254.182	3.62689341
254.394	3.37941259
254.606	3.09082945
254.818	3.57508147
255.03	3.30179358
255.242	3.14050112
255.454	2.89447028
255.666	3.41961473
255.877	2.60939446
256.089	2.0075937
256.301	1.69063678
256.513	1.4841273
256.725	1.26819507
256.937	0.31336523
257.149	0.29709134
257.361	0.71210105
257.572	1.40058184
257.784	1.46038227
257.996	1.59871074
258.208	1.35743161
258.42	1.72195665
258.631	1.86758509
258.843	3.22604954
259.055	2.62727882
259.267	2.5125326
259.479	2.56201892
259.69	2.48400877
259.902	2.90266308
260.114	2.15761879
260.325	1.78147003
260.537	3.10348165
260.749	3.33897591
260.961	3.29309512
261.172	2.60940045
261.384	3.07894638
261.596	2.86248831
261.807	3.02165228
262.019	2.25552539
262.23	2.13960442
262.442	1.79550004
262.654	1.79811479
262.865	1.53205163
263.077	0.72115935
263.288	-0.30129442
263.5	0.03131373
263.712	0.29563876
263.923	0.13265549
264.135	0.14784401
264.346	0.14069023
264.558	0.23573057
264.769	0.08289369
264.981	-0.95035648
265.192	-1.68910687
265.404	-1.31026229
265.615	-0.77723231
265.827	-1.22591671
266.038	-0.06640884
266.25	-0.54140797
266.461	-0.07564591
266.673	0.31933148
266.884	0.76530418
267.095	1.95637915
267.307	2.51256281
267.518	2.13906562
267.73	2.2333062
267.941	2.26356912
268.152	2.01037565
268.364	1.74759306
268.575	1.96471979
268.786	2.52542684
268.998	2.47247763
269.209	3.11732286
269.42	3.85883265
269.632	4.25633057
269.843	5.25765069
270.054	5.84237717
270.265	4.99251089
270.477	4.20302773
270.688	4.55455352
270.899	4.72166964
271.11	4.99144343
271.322	4.21429302
271.533	3.99847961
271.744	3.49715996
271.955	3.58648783
272.166	3.62973791
272.378	3.12993252
272.589	3.53984111
272.8	4.70357102
273.011	4.60180937
273.222	4.53957483
273.433	4.81661811
273.644	4.51683733
273.856	4.14964754
274.067	3.44019239
274.278	2.25850266
274.489	2.09642607
274.7	2.9023424
274.911	2.66806794
275.122	2.95623631
275.333	2.01057479
275.544	1.76476645
275.755	2.35482695
275.966	2.01183595
276.177	1.36348887
276.388	1.52945944
276.599	1.86106681
276.81	2.84091293
277.021	2.81568867
277.232	2.20755162
277.443	2.37062443
277.654	2.69380325
277.865	2.48939085
278.076	2.35148266
278.287	2.90567785
278.497	3.66046471
278.708	3.73921891
278.919	3.03211134
279.13	3.23627359
279.341	3.32118715
279.552	3.04185693
279.763	3.52143861
279.973	3.69300121
280.184	4.25590073
280.395	3.95139474
280.606	4.65601896
280.817	4.85786659
281.027	4.63049899
281.238	4.10240032
281.449	3.89301298
281.66	3.41068057
281.87	3.74267323
282.081	2.92574746
282.292	4.06692455
282.503	4.04547057
282.713	4.1727152
282.924	4.38723245
283.135	5.12242091
283.345	5.99330771
283.556	6.35145746
283.767	6.2974319
283.977	6.45198656
284.188	5.91249103
284.399	5.97044335
284.609	5.67428855
284.82	6.08629709
285.03	5.13118262
285.241	5.19280807
285.451	4.58313616
285.662	4.96282646
285.873	5.30825532
286.083	5.20914163
286.294	4.3582432
286.504	4.45324235
286.715	3.71223601
286.925	4.70346743
287.136	4.14530219
287.346	3.97213455
287.557	3.51932353
287.767	2.87798158
287.978	2.31751639
288.188	3.128237
288.399	3.41236067
288.609	4.26741422
288.819	3.80903803
289.03	3.83533064
289.24	3.69834679
289.451	4.48918643
289.661	4.5738526
289.871	5.23932074
290.082	5.23482925
290.292	4.76399684
290.502	5.07016521
290.713	5.10092338
290.923	5.16141249
291.133	5.59094126
291.344	5.72885461
291.554	6.10034745
291.764	6.26324211
291.974	6.27389932
292.185	6.43792019
292.395	6.53885281
292.605	6.14043417
292.815	5.90985771
293.026	5.52227168
293.236	5.85611343
293.446	5.82924139
293.656	5.83740893
293.866	5.66403821
294.077	5.51163239
294.287	5.41829194
294.497	5.18316736
294.707	5.37321653
294.917	5.44400969
295.127	5.50117972
295.337	5.52477086
295.548	5.37950011
295.758	5.1433432
295.968	5.0402515
296.178	4.87283439
296.388	5.00497677
296.598	5.07217485
296.808	4.94700337
297.018	4.85378436
297.228	4.87878417
297.438	4.97720628
297.648	5.05700903
297.858	5.15807119
298.068	5.1575266
298.278	5.17091819
298.488	5.26932505
298.698	5.34550443
298.908	5.43347296
299.118	5.42961115
299.328	5.42733483
299.538	5.48146031
299.748	5.45164683
299.957	5.42213804
300.167	5.44672567
300.377	5.45184992
300.587	5.48840673
300.797	5.46386882
301.007	5.46787642
301.217	5.56603537
301.426	5.62441619
301.636	5.62491411
301.846	5.58930653
302.056	5.57891683
302.266	5.57020865
302.475	5.58492441
302.685	5.6024848
302.895	5.63802365
303.105	5.63459731
303.314	5.63294328
303.524	5.63348894
303.734	5.64189769
303.944	5.63173531
304.153	5.6335774
304.363	5.65702011
304.573	5.64231036
304.782	5.67062053
304.992	5.68196603
305.202	5.69880714
305.411	5.68987887
305.621	5.68219776
305.831	5.69206199
306.04	5.7060846
306.25	5.73426323
306.459	5.72834778
306.669	5.73714536
306.878	5.75536175
307.088	5.76895202
307.298	5.76222469
307.507	5.75385254
307.717	5.75854325
307.926	5.76493096
308.136	5.7757828
308.345	5.785896
308.555	5.80189632
308.764	5.80616522
308.974	5.82756144
309.183	5.82640401
309.392	5.8317897
309.602	5.83091996
309.811	5.85526059
310.021	5.84539992
310.23	5.85334726
310.44	5.85486497
310.649	5.86169271
310.858	5.87238906
311.068	5.87316491
311.277	5.87524191
311.486	5.88019545
311.696	5.88899611
311.905	5.89805988
312.114	5.90882659
312.324	5.9170492
312.533	5.92153959
312.742	5.92510552
312.952	5.93797365
313.161	5.94215369
313.37	5.9491434
313.579	5.95791141
313.789	5.96385429
313.998	5.97159698
314.207	5.98275621
314.416	6.00331214
314.625	6.00461468
314.835	6.00762172
315.044	6.01602231
315.253	6.02497
315.462	6.02893692
315.671	6.03645516
315.88	6.04576372
316.09	6.04556759
316.299	6.05098102
316.508	6.05197549
316.717	6.05804558
316.926	6.06473666
317.135	6.0722995
317.344	6.07231061
317.553	6.07697476
317.762	6.0885339
317.971	6.092415
318.18	6.10524301
318.389	6.11255321
318.598	6.10728643
318.807	6.1084805
319.016	6.1143971
319.225	6.12352679
319.434	6.11503608
319.643	6.11225292
319.852	6.1185308
320.061	6.12092712
320.27	6.11927191
320.479	6.12350188
320.688	6.12633344
320.897	6.13150837
321.105	6.13493485
321.314	6.14307214
321.523	6.15298582
321.732	6.15693567
321.941	6.16614153
322.15	6.16383469
322.359	6.16696619
322.567	6.17066981
322.776	6.17370825
322.985	6.17408969
323.194	6.17979965
323.403	6.18258022
323.611	6.1892565
323.82	6.19937707
324.029	6.20606847
324.237	6.20995157
324.446	6.21192738
324.655	6.22067794
324.864	6.22521106
325.072	6.22610215
325.281	6.22743076
325.49	6.2323195
325.698	6.2302105
325.907	6.23028462
326.116	6.23260295
326.324	6.23206859
326.533	6.23915509
326.741	6.24409177
326.95	6.24416201
327.159	6.25198149
327.367	6.26010706
327.576	6.26164323
327.784	6.26995669
327.993	6.26746408
328.201	6.27307699
328.41	6.27805293
328.618	6.28600282
328.827	6.29593424
329.035	6.29737666
329.244	6.30458897
329.452	6.31538586
329.661	6.32686805
329.869	6.32980008
330.078	6.33754004
330.286	6.34298794
330.495	6.3519779
330.703	6.36023589
330.911	6.36054958
331.12	6.36467343
331.328	6.37146113
331.537	6.37145966
331.745	6.37892788
331.953	6.38867258
332.162	6.39138324
332.37	6.40228577
332.578	6.40740745
332.787	6.41138691
332.995	6.41250711
333.203	6.41599088
333.411	6.42248532
333.62	6.42853289
333.828	6.43601634
334.036	6.44011112
334.244	6.45019081
334.453	6.46015133
334.661	6.4668521
334.869	6.46902784
335.077	6.47797174
335.285	6.48718032
335.494	6.49754476
335.702	6.50568117
335.91	6.51476574
336.118	6.51845187
336.326	6.5224798
336.534	6.52874359
336.742	6.53202736
336.951	6.54225024
337.159	6.5500821
337.367	6.56559184
337.575	6.57013705
337.783	6.57601675
337.991	6.57962563
338.199	6.58646311
338.407	6.58944266
338.615	6.59481672
338.823	6.59465114
339.031	6.59902657
339.239	6.60660943
339.447	6.61242691
339.655	6.61597836
339.863	6.61670363
340.071	6.61881945
340.279	6.62826183
340.487	6.63516752
340.695	6.64033297
340.903	6.6433046
341.11	6.64844692
341.318	6.65100765
341.526	6.65666141
341.734	6.65793204
341.942	6.66539927
342.15	6.67157736
342.358	6.67614878
342.565	6.67794454
342.773	6.6869847
342.981	6.68818554
343.189	6.69584474
343.397	6.70422364
343.604	6.71001111
343.812	6.71352271
344.02	6.71934117
344.228	6.72602929
344.435	6.73135738
344.643	6.730409
344.851	6.73513062
345.058	6.7427015
345.266	6.75108123
345.474	6.7602114
345.681	6.76373943
345.889	6.76731763
346.097	6.76690584
346.304	6.76779132
346.512	6.7730656
346.72	6.77742506
346.927	6.7824882
347.135	6.78422761
347.342	6.78997773
347.55	6.7914464
347.758	6.79240087
347.965	6.79796752
348.173	6.80136047
348.38	6.80864108
348.588	6.81604245
348.795	6.82158517
349.003	6.82581254
349.21	6.83233905
349.418	6.83378885
349.625	6.83302187
349.833	6.83440535
350.04	6.84240282
350.247	6.84915845
350.455	6.85289421
350.662	6.86043099
350.87	6.86749464
351.077	6.87563381
351.284	6.88046016
351.492	6.88670253
351.699	6.89041473
351.906	6.89797101
352.114	6.90211681
352.321	6.90363923
352.528	6.90173648
352.736	6.9061228
352.943	6.90939938
353.15	6.91111904
353.358	6.91694963
353.565	6.91999263
353.772	6.9245774
353.979	6.93330999
354.187	6.93986936
354.394	6.94047191
354.601	6.94374564
354.808	6.94945225
355.015	6.95357593
355.223	6.95359268
355.43	6.9547286
355.637	6.95831974
355.844	6.96238513
356.051	6.96879076
356.258	6.9705342
356.465	6.98144372
356.673	6.98454298
356.88	6.99917203
357.087	7.00161102
357.294	6.99990131
357.501	7.00552474
357.708	7.01316803
357.915	7.01666767
358.122	7.0217799
358.329	7.02562754
358.536	7.0286647
358.743	7.03120655
358.95	7.03683393
359.157	7.03893017
359.364	7.04283473
359.571	7.04752374
359.778	7.05389684
359.985	7.05406774
360.192	7.06070863
360.399	7.06592703
360.606	7.07240563
360.812	7.07003495
361.019	7.07438065
361.226	7.07581498
361.433	7.07765736
361.64	7.08373405
361.847	7.08589452
362.054	7.08585257
362.26	7.09096438
362.467	7.09554828
362.674	7.09833127
362.881	7.10152918
363.088	7.1059568
363.294	7.10799025
363.501	7.11399317
363.708	7.11882741
363.915	7.12363398
364.121	7.12378264
364.328	7.13349421
364.535	7.13608125
364.741	7.13784927
364.948	7.14006089
365.155	7.14739694
365.361	7.14944828
365.568	7.15324792
365.775	7.16182067
365.981	7.16845193
366.188	7.17073307
366.395	7.17514709
366.601	7.17543963
366.808	7.17885616
367.014	7.18489205
367.221	7.19129445
367.427	7.19434217
367.634	7.19948907
367.84	7.20474413
368.047	7.20961218
368.254	7.21627178
368.46	7.22203421
368.667	7.22499887
368.873	7.23177524
369.079	7.23822343
369.286	7.24263229
369.492	7.24933507
369.699	7.25822564
369.905	7.26196334
370.112	7.26780851
370.318	7.26945407
370.524	7.28248271
370.731	7.2927965
370.937	7.30372156
371.144	7.31129566
371.35	7.3178133
371.556	7.32423334
371.763	7.33293837
371.969	7.34292115
372.175	7.35113961
372.381	7.35660189
372.588	7.36175552
372.794	7.37294528
373	7.38311281
373.206	7.38550951
373.413	7.39406565
373.619	7.39966962
373.825	7.40585409
374.031	7.41067748
374.238	7.41729865
374.444	7.42065555
374.65	7.4307047
374.856	7.43473514
375.062	7.43789174
375.268	7.44176576
375.475	7.44866345
375.681	7.45492634
375.887	7.45934313
376.093	7.46831062
376.299	7.46882722
376.505	7.47544511
376.711	7.48441765
376.917	7.49169274
377.123	7.49651512
377.329	7.50251741
377.535	7.51223754
377.741	7.52307513
377.947	7.53645631
378.153	7.54196138
378.359	7.55233229
378.565	7.56228173
378.771	7.57175972
378.977	7.58015416
379.183	7.58889994
379.389	7.59931531
379.595	7.60776299
379.801	7.61770636
380.007	7.6268752
380.213	7.63659707
380.418	7.64637869
380.624	7.65745585
380.83	7.66467498
381.036	7.6730135
381.242	7.67985911
381.448	7.68989846
381.653	7.6940899
381.859	7.70253306
382.065	7.70668909
382.271	7.70980339
382.476	7.72245827
382.682	7.72866749
382.888	7.73595949
383.094	7.74440301
383.299	7.75469101
383.505	7.7610604
383.711	7.76783882
383.916	7.77422137
384.122	7.78152966
384.328	7.79107538
384.533	7.79893155
384.739	7.80607727
384.945	7.81440297
385.15	7.8227032
385.356	7.82766998
385.562	7.833835
385.767	7.83795763
385.973	7.84515594
386.178	7.85354669
386.384	7.85317498
386.589	7.86146863
386.795	7.8624411
387	7.87353709
387.206	7.88254163
387.411	7.89052673
387.617	7.89517165
387.822	7.90180805
388.028	7.90980571
388.233	7.91913338
388.439	7.92657188
388.644	7.93097878
388.85	7.93697372
389.055	7.94479586
389.26	7.95484157
389.466	7.96298473
389.671	7.97182745
389.877	7.98164069
390.082	7.99505265
390.287	8.00865274
390.493	8.01794922
390.698	8.03260334
390.903	8.04257123
391.109	8.05460388
391.314	8.06310951
391.519	8.06901865
391.724	8.0755349
391.93	8.08503649
392.135	8.0936289
392.34	8.10332079
392.545	8.11396627
392.751	8.12172395
392.956	8.1320984
393.161	8.13913261
393.366	8.14568203
393.571	8.15235142
393.776	8.15831057
393.982	8.16629033
394.187	8.1747783
394.392	8.18191037
394.597	8.18782547
394.802	8.19619039
395.007	8.20415862
395.212	8.21208456
395.417	8.21691668
395.622	8.22549668
395.827	8.23264664
396.032	8.23869204
396.237	8.24180516
396.442	8.24900845
396.647	8.25314769
396.852	8.2583007
397.057	8.26317968
397.262	8.26666572
397.467	8.27651353
397.672	8.28238246
397.877	8.2869991
398.082	8.29117968
398.287	8.29292843
398.492	8.29688499
398.697	8.29631775
398.902	8.29993129
399.107	8.29869114
399.311	8.30128781
399.516	8.30520264
399.721	8.30969558
399.926	8.31312219
400.131	8.31665918
400.336	8.32106576
400.54	8.32640935
400.745	8.33223389
400.95	8.33339072
401.155	8.33683942
401.359	8.3390311
401.564	8.34336975
401.769	8.34546007
401.974	8.35115615
402.178	8.3584852
402.383	8.36402154
402.588	8.37360066
402.792	8.37853349
402.997	8.38655894
403.202	8.39166317
403.406	8.40218755
403.611	8.4107417
403.815	8.41600693
404.02	8.42182517
404.225	8.42601181
404.429	8.43167404
404.634	8.43602505
404.838	8.44209291
405.043	8.44737645
405.247	8.4567719
405.452	8.4639602
405.656	8.47228728
405.861	8.47934465
406.065	8.48577751
406.27	8.49021561
406.474	8.49250957
406.679	8.50267129
406.883	8.50644039
407.088	8.51226743
407.292	8.5180056
407.497	8.52353676
407.701	8.52616293
407.905	8.52853341
408.11	8.53442481
408.314	8.54115242
408.518	8.54784294
408.723	8.55433878
408.927	8.56377909
409.131	8.56986071
409.336	8.57642439
409.54	8.57941738
409.744	8.58085745
409.949	8.58469198
410.153	8.59198921
410.357	8.59798095
410.561	8.60157772
410.766	8.60765433
410.97	8.6080408
411.174	8.6127528
411.378	8.61810816
411.582	8.62337803
411.787	8.62906723
411.991	8.63555913
412.195	8.64199793
412.399	8.64883018
412.603	8.6527334
412.807	8.65458061
413.011	8.65756978
413.215	8.65987916
413.419	8.66583353
413.624	8.66879098
413.828	8.67845498
414.032	8.68817668
414.236	8.69674487
414.44	8.7009198
414.644	8.70349779
414.848	8.71118274
415.052	8.71518578
415.256	8.72156543
415.46	8.72801621
415.664	8.73501936
415.868	8.73889751
416.072	8.74713319
416.275	8.75182015
416.479	8.75832597
416.683	8.76216937
416.887	8.77250515
417.091	8.7815989
417.295	8.78862901
417.499	8.79579269
417.703	8.80079074
417.906	8.80583755
418.11	8.81138884
418.314	8.81887584
418.518	8.82433179
418.722	8.83025386
418.925	8.8367564
419.129	8.84328472
419.333	8.85262628
419.537	8.86272591
419.74	8.86867933
419.944	8.8734431
420.148	8.88052432
420.352	8.88633543
420.555	8.89375211
420.759	8.89828501
420.963	8.90394156
421.166	8.90690533
421.37	8.91336496
421.573	8.92162708
421.777	8.92786888
421.981	8.9364105
422.184	8.94562478
422.388	8.95044973
422.591	8.95869455
422.795	8.9654915
422.999	8.97405862
423.202	8.98384373
423.406	8.99101182
423.609	8.99798053
423.813	9.00367019
424.016	9.01487844
424.22	9.02663832
424.423	9.03703193
424.627	9.04218716
424.83	9.04975869
425.033	9.0599696
425.237	9.06929573
425.44	9.07804928
425.644	9.08755369
425.847	9.09669106
426.05	9.10550099
426.254	9.11382835
426.457	9.12145648
426.66	9.13332405
426.864	9.13888512
427.067	9.14779567
427.27	9.15741809
427.474	9.16603024
427.677	9.17241296
427.88	9.18243493
428.084	9.19071584
428.287	9.19455185
428.49	9.19949066
428.693	9.20643589
428.896	9.21395677
429.1	9.22601518
429.303	9.23220565
429.506	9.2395638
429.709	9.24892973
429.912	9.25618643
430.116	9.262202
430.319	9.26901542
430.522	9.27693639
430.725	9.28428398
430.928	9.28972907
431.131	9.29681225
431.334	9.30544905
431.537	9.31272513
431.74	9.32108977
431.943	9.33064149
432.146	9.33725545
432.349	9.3455907
432.552	9.35550597
432.755	9.36344779
432.958	9.37206392
433.161	9.38236612
433.364	9.38754399
433.567	9.39812354
433.77	9.40697645
433.973	9.41369521
434.176	9.4188395
434.379	9.4257158
434.582	9.43467426
434.785	9.44348235
434.988	9.45345968
435.19	9.46004717
435.393	9.46831552
435.596	9.47449507
435.799	9.48175426
436.002	9.48870126
436.205	9.49822863
436.407	9.50471515
436.61	9.51056737
436.813	9.51903332
437.016	9.52701914
437.218	9.53550465
437.421	9.54406305
437.624	9.54947184
437.827	9.55457961
438.029	9.56147245
438.232	9.56973621
438.435	9.57854691
438.637	9.59043038
438.84	9.59736291
439.043	9.60518866
439.245	9.61148336
439.448	9.61947544
439.65	9.6268083
439.853	9.63412827
440.056	9.64078708
440.258	9.64826615
440.461	9.65373532
440.663	9.66137686
440.866	9.67020847
441.068	9.67826444
441.271	9.68680079
441.473	9.69316377
441.676	9.70087607
441.878	9.70744975
442.081	9.71580595
442.283	9.72382027
442.486	9.73169836
442.688	9.74023104
442.89	9.7459765
443.093	9.75414506
443.295	9.75783431
443.498	9.76555628
443.7	9.77507159
443.902	9.78293815
444.105	9.79222024
444.307	9.79941042
444.509	9.80864856
444.712	9.81528268
444.914	9.82340396
445.116	9.83190063
445.319	9.8359213
445.521	9.84180459
445.723	9.84912913
445.925	9.85624417
446.128	9.86843717
446.33	9.87730593
446.532	9.88440401
446.734	9.8908199
446.936	9.89840544
447.139	9.90552106
447.341	9.91079125
447.543	9.91993418
447.745	9.92902177
447.947	9.93606844
448.149	9.94435889
448.351	9.95136494
448.553	9.95806978
448.755	9.96455999
448.958	9.97390881
449.16	9.97987834
449.362	9.98700763
449.564	9.99638977
449.766	10.00615059
449.968	10.01306385
450.17	10.02268604
450.372	10.02770811
450.574	10.03625975
450.776	10.04471201
450.978	10.05168096
451.179	10.06021701
451.381	10.06774199
451.583	10.07922785
451.785	10.09032455
451.987	10.09677494
452.189	10.10542267
452.391	10.11136855
452.593	10.11928177
452.795	10.1280424
452.996	10.1358233
453.198	10.14445291
453.4	10.15399326
453.602	10.16154374
453.804	10.16985718
454.005	10.17809062
454.207	10.18851109
454.409	10.19584458
454.611	10.20457479
454.812	10.21291422
455.014	10.22268789
455.216	10.23352229
455.417	10.24175684
455.619	10.25160161
455.821	10.25780732
456.022	10.26342515
456.224	10.26951892
456.426	10.27568413
456.627	10.28678134
456.829	10.29446406
457.031	10.30354716
457.232	10.31168673
457.434	10.32094542
457.635	10.32919182
457.837	10.33718546
458.038	10.34618843
458.24	10.35295138
458.441	10.36089729
458.643	10.36652662
458.844	10.3748203
459.046	10.38421157
459.247	10.39288023
459.449	10.39890518
459.65	10.40633813
459.852	10.41475022
460.053	10.42185237
460.254	10.43260467
460.456	10.44246851
460.657	10.45285397
460.859	10.45938016
461.06	10.4669812
461.261	10.47457453
461.463	10.48350973
461.664	10.48960676
461.865	10.49955452
462.066	10.50832137
462.268	10.51680305
462.469	10.52444578
462.67	10.533994
462.872	10.54238016
463.073	10.55038465
463.274	10.555663
463.475	10.5627818
463.676	10.57291816
463.878	10.57955015
464.079	10.58720638
464.28	10.59518737
464.481	10.60130618
464.682	10.61091724
464.883	10.61880451
465.085	10.62863067
465.286	10.63829461
465.487	10.64599262
465.688	10.65278943
465.889	10.66023777
466.09	10.66768232
466.291	10.67594913
466.492	10.68425823
466.693	10.69286286
466.894	10.69856405
467.095	10.70908513
467.296	10.71761421
467.497	10.7247661
467.698	10.7327224
467.899	10.74194432
468.1	10.75127257
468.301	10.75975608
468.502	10.76928426
468.703	10.7770887
468.903	10.78542433
469.104	10.79545347
469.305	10.8027168
469.506	10.80922794
469.707	10.81830802
469.908	10.82865384
470.109	10.8400739
470.309	10.84846321
470.51	10.85528097
470.711	10.86523436
470.912	10.87271511
471.112	10.88193338
471.313	10.88991926
471.514	10.89793746
471.715	10.90780066
471.915	10.91691753
472.116	10.92311475
472.317	10.93289463
472.517	10.94075374
472.718	10.95068786
472.919	10.96240904
473.119	10.97178234
473.32	10.97887752
473.521	10.98745879
473.721	10.99974646
473.922	11.01001273
474.122	11.01836883
474.323	11.02741218
474.523	11.03621814
474.724	11.04689005
474.925	11.05621657
475.125	11.06747328
475.326	11.07839921
475.526	11.08839337
475.727	11.10018895
475.927	11.11015832
476.127	11.11855191
476.328	11.12926345
476.528	11.13736186
476.729	11.14668131
476.929	11.15625089
477.13	11.16594063
477.33	11.17504947
477.53	11.18586429
477.731	11.1950094
477.931	11.20296633
478.131	11.21215813
478.332	11.22151765
478.532	11.23040491
478.732	11.24044939
478.933	11.24989336
479.133	11.25949383
479.333	11.26923843
479.533	11.28022611
479.734	11.28899807
479.934	11.29726842
480.134	11.30667344
480.334	11.31870847
480.534	11.32893165
480.735	11.34022897
480.935	11.35379139
481.135	11.36509368
481.335	11.37376327
481.535	11.38534825
481.735	11.39646812
481.935	11.40908073
482.136	11.42041094
482.336	11.43217845
482.536	11.44396594
482.736	11.45372083
482.936	11.46557611
483.136	11.47835672
483.336	11.49051194
483.536	11.50353066
483.736	11.51313034
483.936	11.52606669
484.136	11.53904939
484.336	11.55441445
484.536	11.56498525
484.736	11.57723208
484.936	11.58957241
485.135	11.60060966
485.335	11.61333506
485.535	11.62595034
485.735	11.63782802
485.935	11.65003557
486.135	11.6623699
486.335	11.67625436
486.534	11.68956187
486.734	11.70412178
486.934	11.71795013
487.134	11.73075742
487.334	11.74462831
487.533	11.75757732
487.733	11.7683876
487.933	11.78296627
488.133	11.79710752
488.332	11.80954619
488.532	11.82076275
488.732	11.83546854
488.931	11.85035373
489.131	11.8656166
489.331	11.87914419
489.53	11.89020234
489.73	11.90338166
489.93	11.91632239
490.129	11.92839337
490.329	11.94113309
490.528	11.95283042
490.728	11.96610831
490.928	11.97815442
491.127	11.99226803
491.327	12.00544255
491.526	12.01755602
491.726	12.03021284
491.925	12.0443061
492.125	12.05666341
492.324	12.06815804
492.524	12.08037693
492.723	12.0917473
492.922	12.10343619
493.122	12.11576971
493.321	12.12785604
493.521	12.14045145
493.72	12.15439893
493.919	12.16954191
494.119	12.18362133
494.318	12.19889306
494.517	12.21323277
494.717	12.22825685
494.916	12.24144978
495.115	12.2551406
495.315	12.27040606
495.514	12.28518581
495.713	12.29918628
495.912	12.31342847
496.112	12.32664693
496.311	12.3396736
496.51	12.35371619
496.709	12.37027743
496.908	12.38676296
497.108	12.40232642
497.307	12.41761874
497.506	12.43198538
497.705	12.44654988
497.904	12.46293644
498.103	12.47743978
498.302	12.49219832
498.501	12.50560121
498.701	12.51939663
498.9	12.5337947
499.099	12.54913523
499.298	12.56419265
499.497	12.57782769
499.696	12.59311099
499.895	12.60698078
500.094	12.62181558
500.293	12.63813078
500.492	12.65600453
500.691	12.67112298
500.89	12.68469441
501.088	12.69940452
501.287	12.71319055
501.486	12.727283
501.685	12.74351937
501.884	12.75942895
502.083	12.7743183
502.282	12.78847278
502.481	12.80220245
502.679	12.8192736
502.878	12.83670425
503.077	12.85237221
503.276	12.86851766
503.475	12.88515431
503.673	12.89966592
503.872	12.91496988
504.071	12.93287157
504.27	12.94840699
504.468	12.96372244
504.667	12.97917252
504.866	12.99375905
505.064	13.01217909
505.263	13.02745482
505.462	13.04442313
505.66	13.06140679
505.859	13.07731059
506.058	13.0926695
506.256	13.10937349
506.455	13.12336318
506.653	13.14005755
506.852	13.15492004
507.05	13.17004506
507.249	13.18400508
507.448	13.19759831
507.646	13.21119828
507.845	13.22679519
508.043	13.24311003
508.242	13.25505004
508.44	13.26953193
508.638	13.28441105
508.837	13.29768863
509.035	13.31514156
509.234	13.33019798
509.432	13.34619032
509.631	13.36209358
509.829	13.37614269
510.027	13.38884763
510.226	13.40359024
510.424	13.41821519
510.622	13.43636389
510.821	13.45200379
511.019	13.46597789
511.217	13.48124886
511.415	13.49846308
511.614	13.51389507
511.812	13.53026642
512.01	13.54776162
512.208	13.56354946
512.407	13.58257045
512.605	13.59954825
512.803	13.61711671
513.001	13.63422066
513.199	13.64936278
513.398	13.66404702
513.596	13.68155626
513.794	13.69931549
513.992	13.71560529
514.19	13.73462929
514.388	13.75258262
514.586	13.77067858
514.784	13.7867447
514.982	13.80617448
515.18	13.82411755
515.378	13.83901289
515.576	13.85588141
515.774	13.87318149
515.972	13.89176547
516.17	13.90909939
516.368	13.92496164
516.566	13.94192819
516.764	13.95959863
516.962	13.9776967
517.16	13.99723781
517.358	14.01719494
517.556	14.03439524
517.754	14.05090364
517.952	14.06868712
518.149	14.0873449
518.347	14.10538263
518.545	14.12294305
518.743	14.14048469
518.941	14.1585961
519.138	14.17651121
519.336	14.19758261
519.534	14.21674251
519.732	14.23453553
519.929	14.2540645
520.127	14.27144581
520.325	14.28849809
520.523	14.30591733
520.72	14.32653117
520.918	14.34482174
521.116	14.36311137
521.313	14.37866148
521.511	14.39419147
521.709	14.41170913
521.906	14.43085607
522.104	14.44782402
522.301	14.46463029
522.499	14.48152187
522.696	14.50016134
522.894	14.51821819
523.092	14.53614284
523.289	14.55129322
523.487	14.5651595
523.684	14.58466813
523.882	14.60322752
524.079	14.62055985
524.276	14.63928831
524.474	14.65870332
524.671	14.67864167
524.869	14.69414183
525.066	14.71180475
525.264	14.72933858
525.461	14.74626457
525.658	14.76466929
525.856	14.78381917
526.053	14.79866435
526.25	14.81548247
526.448	14.83072656
526.645	14.84651987
526.842	14.86160895
527.039	14.87760804
527.237	14.89564456
527.434	14.91351867
527.631	14.93062994
527.828	14.94814718
528.026	14.96643223
528.223	14.98454845
528.42	15.00002635
528.617	15.01706219
528.814	15.03329728
529.012	15.05069169
529.209	15.06559139
529.406	15.08317901
529.603	15.10140182
529.8	15.11897506
529.997	15.134162
530.194	15.153845
530.391	15.17098644
530.588	15.19061021
530.785	15.20971886
530.982	15.22677814
531.179	15.23936002
531.376	15.25339038
531.573	15.26949073
531.77	15.28658489
531.967	15.30057305
532.164	15.31530322
532.361	15.32994747
532.558	15.34455383
532.755	15.35605915
532.952	15.36830674
533.149	15.38241604
533.346	15.39772683
533.543	15.41127695
533.739	15.42484483
533.936	15.43685786
534.133	15.45228728
534.33	15.46442108
534.527	15.47928173
534.723	15.49308901
534.92	15.50600503
535.117	15.52118905
535.314	15.53870136
535.51	15.5542448
535.707	15.56776654
535.904	15.58229969
536.1	15.59503753
536.297	15.60637491
536.494	15.62008807
536.69	15.6330786
536.887	15.6481162
537.084	15.6626716
537.28	15.67665541
537.477	15.68860274
537.674	15.70173535
537.87	15.71544845
538.067	15.72965431
538.263	15.74130013
538.46	15.75720399
538.656	15.76782105
538.853	15.78130219
539.049	15.79331853
539.246	15.80386935
539.442	15.81632975
539.639	15.82628614
539.835	15.83792043
540.032	15.84987343
540.228	15.86155535
540.424	15.87386145
540.621	15.88175066
540.817	15.89534381
541.014	15.9076329
541.21	15.918796
541.406	15.93012715
541.603	15.94251425
541.799	15.95081833
541.995	15.9604105
542.191	15.96702841
542.388	15.97515468
542.584	15.98227988
542.78	15.99341292
542.976	16.00007516
543.173	16.01096623
543.369	16.02155259
543.565	16.03049693
543.761	16.04081092
543.957	16.04976942
544.154	16.05721455
544.35	16.06869832
544.546	16.07678581
544.742	16.08772522
544.938	16.09480755
545.134	16.10137035
545.33	16.10988984
545.526	16.11615997
545.722	16.12452114
545.919	16.13339136
546.115	16.14295403
546.311	16.15497417
546.507	16.16626586
546.703	16.1709818
546.899	16.17647064
547.095	16.18693348
547.29	16.19423858
547.486	16.20194613
547.682	16.20934615
547.878	16.21453176
548.074	16.22106015
548.27	16.22829458
548.466	16.23365434
548.662	16.24280835
548.858	16.2505251
549.053	16.25813547
549.249	16.26481742
549.445	16.27334303
549.641	16.28101064
549.837	16.28945714
550.032	16.29676272
550.228	16.30265489
550.424	16.30709891
550.62	16.3139516
550.815	16.32534926
551.011	16.33439848
551.207	16.33966375
551.402	16.34531899
551.598	16.35414069
551.794	16.36179574
551.989	16.37264855
552.185	16.38217024
552.381	16.39024801
552.576	16.39902693
552.772	16.40430853
552.967	16.41189216
553.163	16.4179148
553.359	16.42875493
553.554	16.43623481
553.75	16.44339994
553.945	16.44887258
554.141	16.45677256
554.336	16.46480012
554.532	16.47687441
554.727	16.48544795
554.922	16.49280793
555.118	16.5031184
555.313	16.51103711
555.509	16.52074349
555.704	16.52881313
555.899	16.53833575
556.095	16.54560609
556.29	16.55285071
556.486	16.56604117
556.681	16.57490149
556.876	16.58737115
557.071	16.59712768
557.267	16.608524
557.462	16.61720405
557.657	16.6268004
557.853	16.6374989
558.048	16.6499916
558.243	16.66048256
558.438	16.6748403
558.633	16.68723271
558.829	16.69745588
559.024	16.71165602
559.219	16.72075978
559.414	16.73420557
559.609	16.74672491
559.804	16.75845412
559.999	16.77036898
560.194	16.78365939
560.39	16.79813888
560.585	16.80741116
560.78	16.8174812
560.975	16.82512744
561.17	16.83764165
561.365	16.84878016
561.56	16.86087681
561.755	16.87199773
561.95	16.88472259
562.145	16.89824279
562.34	16.91322343
562.535	16.92562051
562.729	16.93574232
562.924	16.94671828
563.119	16.95776969
563.314	16.97401919
563.509	16.98900987
563.704	17.001598
563.899	17.01393365
564.093	17.02576732
564.288	17.04002107
564.483	17.05525444
564.678	17.06842739
564.873	17.08691075
565.067	17.10563876
565.262	17.12054949
565.457	17.13868589
565.652	17.15701859
565.846	17.1755109
566.041	17.19321596
566.236	17.20930186
566.43	17.22485496
566.625	17.23847358
566.82	17.2564985
567.014	17.27610001
567.209	17.29294757
567.404	17.30906029
567.598	17.32568736
567.793	17.34597677
567.987	17.36636151
568.182	17.38642498
568.376	17.40482761
568.571	17.42171773
568.765	17.4395943
568.96	17.45624429
569.154	17.47576021
569.349	17.49873358
569.543	17.51547747
569.738	17.53279999
569.932	17.54961579
570.127	17.56922183
570.321	17.58630387
570.515	17.60834843
570.71	17.62952941
570.904	17.64590652
571.098	17.66910926
571.293	17.68923079
571.487	17.70638028
571.681	17.72500463
571.876	17.7427234
572.07	17.76036217
572.264	17.77868562
572.458	17.79844455
572.653	17.81915239
572.847	17.84091845
573.041	17.86273982
573.235	17.8818489
573.43	17.89602509
573.624	17.91789213
573.818	17.93775528
574.012	17.9599002
574.206	17.98069892
574.4	18.00600852
574.594	18.0257512
574.788	18.04701506
574.983	18.06958533
575.177	18.08662778
575.371	18.10884951
575.565	18.13115863
575.759	18.15458347
575.953	18.17494912
576.147	18.1960261
576.341	18.21577627
576.535	18.23865332
576.729	18.25720387
576.923	18.27674594
577.117	18.29510898
577.31	18.31444396
577.504	18.33590952
577.698	18.36058714
577.892	18.38122444
578.086	18.39920191
578.28	18.41710492
578.474	18.43291271
578.668	18.44963999
578.861	18.46972422
579.055	18.49038249
579.249	18.50706815
579.443	18.52162594
579.636	18.54166889
579.83	18.55816134
580.024	18.57695663
580.218	18.59677011
580.411	18.61600488
580.605	18.63173189
580.799	18.65075732
580.992	18.6716746
581.186	18.68966833
581.38	18.70517311
581.573	18.72236789
581.767	18.73419397
581.961	18.75046793
582.154	18.77061988
582.348	18.78841472
582.541	18.80549472
582.735	18.8231757
582.928	18.8389299
583.122	18.85512047
583.315	18.87595897
583.509	18.89568524
583.702	18.91075872
583.896	18.92841265
584.089	18.94478298
584.283	18.95984655
584.476	18.97534857
584.67	18.99002832
584.863	19.00280565
585.056	19.015345
585.25	19.03137852
585.443	19.04983918
585.636	19.0668062
585.83	19.08439347
586.023	19.09877939
586.216	19.11380869
586.41	19.12873753
586.603	19.14679633
586.796	19.15888741
586.989	19.17334481
587.183	19.18764134
587.376	19.20269576
587.569	19.21513299
587.762	19.2283764
587.955	19.24234831
588.149	19.25614638
588.342	19.27013244
588.535	19.28494281
588.728	19.30122191
588.921	19.31819192
589.114	19.33372549
589.307	19.34663279
589.5	19.35691243
589.693	19.36884719
589.886	19.38138867
590.08	19.39209694
590.273	19.40583536
590.466	19.41789299
590.659	19.42573647
590.852	19.44263735
591.044	19.45397852
591.237	19.46710345
591.43	19.4785125
591.623	19.49453078
591.816	19.50668628
592.009	19.5141773
592.202	19.52648902
592.395	19.53816624
592.588	19.54653311
592.781	19.55740502
592.973	19.56719666
593.166	19.57596863
593.359	19.58917028
593.552	19.59925015
593.745	19.61099821
593.937	19.62070298
594.13	19.633716
594.323	19.64397836
594.515	19.65574806
594.708	19.66729423
594.901	19.67446761
595.094	19.68337523
595.286	19.69212487
595.479	19.69901917
595.672	19.7053068
595.864	19.71363332
596.057	19.72553689
596.249	19.73131728
596.442	19.73756618
596.635	19.74999499
596.827	19.756417
597.02	19.76561983
597.212	19.77666372
597.405	19.78237393
597.597	19.79361494
597.79	19.80209018
597.982	19.80630929
598.175	19.81238835
598.367	19.81777411
598.559	19.82248073
598.752	19.82811511
598.944	19.83414177
599.137	19.83943263
599.329	19.8419357
599.521	19.84905964
599.714	19.85212201
599.906	19.8594365
600.098	19.86622805
600.291	19.875063
600.483	19.8835925
600.675	19.88637706
600.868	19.89345841
601.06	19.89771546
601.252	19.90248966
601.444	19.90816011
601.637	19.91439111
601.829	19.91799782
602.021	19.92426617
602.213	19.93117828
602.405	19.93625578
602.597	19.94278747
602.789	19.94944701
602.982	19.9563103
603.174	19.960998
603.366	19.96652261
603.558	19.9682287
603.75	19.97388583
603.942	19.97539279
604.134	19.97583586
604.326	19.97593221
604.518	19.97815417
604.71	19.98183267
604.902	19.98568887
605.094	19.98742452
605.286	19.99012161
605.478	19.99241034
605.67	19.99245528
605.862	19.99632337
606.054	20.00042008
606.246	20.00189913
606.437	20.0031171
606.629	20.00252714
606.821	20.00392558
607.013	20.00489739
607.205	20.00930819
607.397	20.01043578
607.588	20.01261516
607.78	20.01614837
607.972	20.02151425
608.164	20.02527698
608.355	20.02909627
608.547	20.03197542
608.739	20.03466072
608.93	20.03685929
609.122	20.04030645
609.314	20.04078256
609.505	20.03938213
609.697	20.04245153
609.889	20.04127584
610.08	20.04295861
610.272	20.04437341
610.463	20.04602647
610.655	20.04557835
610.847	20.04354471
611.038	20.04371236
611.23	20.04334409
611.421	20.04760158
611.613	20.04975603
611.804	20.05070647
611.996	20.04971508
612.187	20.05052488
612.379	20.05180925
612.57	20.04996794
612.761	20.0522629
612.953	20.05318236
613.144	20.05275378
613.336	20.05395093
613.527	20.05963848
613.718	20.06124613
613.91	20.06418805
614.101	20.06184812
614.292	20.06490578
614.483	20.06350379
614.675	20.06532541
614.866	20.06978705
615.057	20.0709433
615.248	20.07196551
615.44	20.07322667
615.631	20.07251777
615.822	20.07297231
616.013	20.07859028
616.204	20.0807228
616.396	20.0825473
616.587	20.08247479
616.778	20.07904224
616.969	20.07680836
617.16	20.07947517
617.351	20.07883794
617.542	20.07549822
617.733	20.07613883
617.924	20.07452902
618.115	20.0787584
618.306	20.07688775
618.497	20.08181003
618.688	20.08664349
618.879	20.08816321
619.07	20.09050444
619.261	20.08951502
619.452	20.08865885
619.643	20.0899493
619.834	20.08883567
620.025	20.08365187
620.216	20.08461639
620.407	20.08475768
620.597	20.08740768
620.788	20.09451758
620.979	20.09703949
621.17	20.09612459
621.361	20.09797585
621.551	20.1019155
621.742	20.10190001
621.933	20.10753655
622.124	20.10588519
622.314	20.10668482
622.505	20.10748218
622.696	20.10781538
622.886	20.1085202
623.077	20.11094541
623.268	20.11262681
623.458	20.11519698
623.649	20.11783314
623.84	20.12473323
624.03	20.13041392
624.221	20.13194171
624.411	20.13229494
624.602	20.13314271
624.792	20.13622808
624.983	20.14022068
625.173	20.14574775
625.364	20.14625853
625.554	20.15048019
625.745	20.1585367
625.935	20.15768442
626.126	20.16345124
626.316	20.1713987
626.507	20.17672901
626.697	20.18220415
626.887	20.18381289
627.078	20.18635403
627.268	20.19558806
627.458	20.1993163
627.649	20.20787379
627.839	20.21166444
628.029	20.21082178
628.22	20.21745207
628.41	20.22396961
628.6	20.23034083
628.79	20.23121653
628.981	20.23668746
629.171	20.24466965
629.361	20.25525936
629.551	20.26096966
629.741	20.26613263
629.932	20.27520771
630.122	20.28278298
630.312	20.28865219
630.502	20.29202519
630.692	20.29803054
630.882	20.30819541
631.072	20.32004036
631.262	20.32637443
631.452	20.33649855
631.642	20.34391266
631.832	20.35243761
632.022	20.363978
632.212	20.37329617
632.402	20.38710175
632.592	20.39631288
632.782	20.40819629
632.972	20.41578742
633.162	20.42274614
633.352	20.4319222
633.542	20.4392631
633.732	20.44666361
633.922	20.45574096
634.111	20.46267527
634.301	20.4721966
634.491	20.48305005
634.681	20.49193873
634.871	20.50405869
635.06	20.51249433
635.25	20.52211488
635.44	20.5333186
635.63	20.53935196
635.819	20.54677482
636.009	20.56033847
636.199	20.56883559
636.388	20.58078624
636.578	20.59266536
636.768	20.60761074
636.957	20.62181705
637.147	20.63338307
637.337	20.64388819
637.526	20.65961703
637.716	20.67472395
637.905	20.68985708
638.095	20.70619592
638.284	20.71853834
638.474	20.73202782
638.663	20.74982799
638.853	20.76352273
639.042	20.78119676
639.232	20.79361985
639.421	20.80800103
639.611	20.8290002
639.8	20.84971087
639.99	20.86503969
640.179	20.88254634
640.368	20.89498302
640.558	20.91314678
640.747	20.92878718
640.936	20.94108828
641.126	20.95755918
641.315	20.97189988
641.504	20.9863077
641.694	21.00250555
641.883	21.02004749
642.072	21.03383774
642.261	21.05296161
642.451	21.07419913
642.64	21.08900485
642.829	21.11191451
643.018	21.12752851
643.207	21.15232984
643.397	21.17112678
643.586	21.1868531
643.775	21.20389555
643.964	21.2193232
644.153	21.23576857
644.342	21.25795615
644.531	21.28038564
644.72	21.29884509
644.909	21.32613629
645.098	21.35270249
645.287	21.37794084
645.476	21.40369309
645.665	21.42648806
645.854	21.44894681
646.043	21.47750547
646.232	21.50104538
646.421	21.52249606
646.61	21.54796591
646.799	21.56532572
646.988	21.58918401
647.177	21.60855979
647.365	21.63094983
647.554	21.65818215
647.743	21.68279416
647.932	21.71272457
648.121	21.74443323
648.309	21.76952086
648.498	21.79193041
648.687	21.81643922
648.876	21.84056737
649.064	21.86142969
649.253	21.88945759
649.442	21.91756934
649.63	21.94105076
649.819	21.96617485
650.008	21.99018936
650.196	22.01598354
650.385	22.04523053
650.574	22.07272755
650.762	22.10259493
650.951	22.13200396
651.139	22.16549366
651.328	22.19821066
651.516	22.22729875
651.705	22.26150726
651.893	22.29151331
652.082	22.31736112
652.27	22.34615544
652.459	22.3799674
652.647	22.4100809
652.836	22.442377
653.024	22.47775163
653.213	22.50837743
653.401	22.53679984
653.589	22.56952443
653.778	22.60028875
653.966	22.63221469
654.154	22.66571701
654.343	22.70215019
654.531	22.73381949
654.719	22.76275495
654.908	22.79702823
655.096	22.82895969
655.284	22.85965488
655.472	22.89216049
655.661	22.92431837
655.849	22.9566657
656.037	22.99402302
656.225	23.02724075
656.413	23.06307193
656.601	23.10062524
656.79	23.13248646
656.978	23.16743617
657.166	23.20279383
657.354	23.23403247
657.542	23.27435136
657.73	23.3070185
657.918	23.34235172
658.106	23.37403822
658.294	23.4035906
658.482	23.43706499
658.67	23.4768684
658.858	23.5074643
659.046	23.54232793
659.234	23.57878103
659.422	23.61315953
659.61	23.64502925
659.798	23.68445694
659.986	23.71597712
660.173	23.75721189
660.361	23.78906369
660.549	23.81778401
660.737	23.85534729
660.925	23.88544141
661.113	23.91690166
661.3	23.9511917
661.488	23.97702664
661.676	24.01712639
661.864	24.05475198
662.051	24.0970231
662.239	24.13086745
662.427	24.17192659
662.614	24.20920158
662.802	24.24696077
662.99	24.28053279
663.177	24.32078513
663.365	24.36135659
663.553	24.40238321
663.74	24.43777997
663.928	24.47534403
664.115	24.50376981
664.303	24.54009358
664.49	24.57840885
664.678	24.61349933
664.866	24.65196362
665.053	24.69432701
665.24	24.73511665
665.428	24.77826729
665.615	24.81063609
665.803	24.84655229
665.99	24.87706787
666.178	24.9129667
666.365	24.94610161
666.552	24.9827867
666.74	25.02227042
666.927	25.05967568
667.114	25.09520248
667.302	25.12856544
667.489	25.16162738
667.676	25.19679482
667.864	25.23871086
668.051	25.279405
668.238	25.31371952
668.425	25.35181799
668.613	25.38978513
668.8	25.42710723
668.987	25.45906202
669.174	25.499218
669.361	25.53729794
669.548	25.57354582
669.736	25.61539988
669.923	25.65465462
670.11	25.70052936
670.297	25.74416998
670.484	25.7760602
670.671	25.81332021
670.858	25.85770038
671.045	25.89210763
671.232	25.93683153
671.419	25.97535099
671.606	26.01551837
671.793	26.04787308
671.98	26.08307357
672.167	26.12411577
672.354	26.16264633
672.541	26.1973375
672.728	26.23518168
672.915	26.27334124
673.101	26.30558608
673.288	26.34320799
673.475	26.39016524
673.662	26.41920647
673.849	26.4585782
674.035	26.4940364
674.222	26.52842894
674.409	26.57099804
674.596	26.60628075
674.783	26.64165948
674.969	26.6841591
675.156	26.71439786
675.343	26.75314109
675.529	26.78339979
675.716	26.82564105
675.903	26.86651405
676.089	26.90917346
676.276	26.95330345
676.462	26.9944374
676.649	27.03046708
676.836	27.07181713
677.022	27.11553613
677.209	27.14956274
677.395	27.17609544
677.582	27.21531933
677.768	27.24957639
677.955	27.28530893
678.141	27.3260429
678.328	27.36345113
678.514	27.39555877
678.701	27.42986359
678.887	27.45936166
679.073	27.50015679
679.26	27.53047209
679.446	27.57557969
679.632	27.60722454
679.819	27.64341547
680.005	27.67718527
680.191	27.70920542
680.378	27.74033482
680.564	27.77745476
680.75	27.81067654
680.936	27.84269848
681.123	27.88040491
681.309	27.92750884
681.495	27.96765445
681.681	28.00181335
681.867	28.03715902
682.054	28.06780046
682.24	28.10580195
682.426	28.14424675
682.612	28.18134838
682.798	28.21769335
682.984	28.25262316
683.17	28.29635109
683.356	28.33281942
683.542	28.36723465
683.728	28.40184013
683.914	28.43466668
684.1	28.47306256
684.286	28.51166604
684.472	28.55246711
684.658	28.59059843
684.844	28.62898951
685.03	28.67036564
685.216	28.70798308
685.402	28.74843611
685.588	28.79001119
685.774	28.82558971
685.96	28.8609077
686.145	28.90263488
686.331	28.9393174
686.517	28.97802002
686.703	29.02280035
686.889	29.05447329
687.074	29.09004331
687.26	29.12303282
687.446	29.17043828
687.631	29.21032273
687.817	29.24166052
688.003	29.27770794
688.189	29.32162639
688.374	29.3562392
688.56	29.39455772
688.745	29.43622378
688.931	29.46723895
689.117	29.49583644
689.302	29.53749684
689.488	29.57648336
689.673	29.61560245
689.859	29.66006816
690.044	29.68940173
690.23	29.72762789
690.415	29.76779321
690.601	29.80428292
690.786	29.84649262
690.972	29.88842348
691.157	29.92481979
691.343	29.95554862
691.528	29.99276455
691.713	30.03921763
691.899	30.08349076
692.084	30.11743715
692.269	30.15708867
692.455	30.19264406
692.64	30.22953124
692.825	30.26801756
693.011	30.30918313
693.196	30.34144394
693.381	30.3749761
693.566	30.40852695
693.752	30.44155916
693.937	30.48424049
694.122	30.52474564
694.307	30.55435092
694.492	30.58790613
694.678	30.61359196
694.863	30.6455448
695.048	30.68442483
695.233	30.72641793
695.418	30.76909127
695.603	30.80853188
695.788	30.83947952
695.973	30.8737681
696.158	30.91058487
696.343	30.94847147
696.528	30.98487131
696.713	31.02380978
696.898	31.05935562
697.083	31.09155588
697.268	31.13244409
697.453	31.17439652
697.638	31.20840438
697.823	31.23513692
698.008	31.27187011
698.192	31.30496139
698.377	31.34091526
698.562	31.38162537
698.747	31.42269141
698.932	31.45461483
699.117	31.49162628
699.301	31.52413804
699.486	31.561088
699.671	31.60165045
699.856	31.63680044
700.04	31.67298853
700.225	31.71192614
700.41	31.74743809
700.594	31.77907716
700.779	31.8158831
700.964	31.85947709
701.148	31.89609078
701.333	31.93451025
701.517	31.97945869
701.702	32.02195968
701.887	32.0564594
702.071	32.10155548
702.256	32.14046454
702.44	32.18692472
702.625	32.21113279
702.809	32.25354858
702.994	32.28298879
703.178	32.31014301
703.362	32.34405635
703.547	32.37613606
703.731	32.41742672
703.916	32.45545101
704.1	32.49125079
704.284	32.52787438
704.469	32.56012904
704.653	32.59650883
704.837	32.62945941
705.022	32.66205548
705.206	32.6919222
705.39	32.721744
705.575	32.75039892
705.759	32.7884797
705.943	32.82364941
706.127	32.85184572
706.311	32.88167581
706.496	32.9277695
706.68	32.96474406
706.864	33.0038564
707.048	33.05026484
707.232	33.08397512
707.416	33.11952367
707.6	33.14893826
707.785	33.18379786
707.969	33.21492277
708.153	33.24577887
708.337	33.29170867
708.521	33.32115633
708.705	33.35486807
708.889	33.38920532
709.073	33.42631437
709.257	33.46388976
709.441	33.50940318
709.624	33.54084827
709.808	33.57586798
709.992	33.61578643
710.176	33.64356136
710.36	33.67518653
710.544	33.70466598
710.728	33.73392067
710.912	33.75767406
711.095	33.79336198
711.279	33.82058869
711.463	33.85794948
711.647	33.89081304
711.83	33.92465693
712.014	33.96681717
712.198	33.99417629
712.382	34.03506629
712.565	34.06855205
712.749	34.10856425
712.933	34.14012647
713.116	34.1759816
713.3	34.20129353
713.483	34.2363314
713.667	34.27522351
713.851	34.31104594
714.034	34.34822881
714.218	34.39328581
714.401	34.43615844
714.585	34.47982852
714.768	34.51850922
714.952	34.54963291
715.135	34.59231579
715.319	34.63202361
715.502	34.67175763
715.686	34.71701436
715.869	34.74816852
716.052	34.7919628
716.236	34.8355774
716.419	34.87651772
716.602	34.91353968
716.786	34.96086673
716.969	35.00239992
717.152	35.05095538
717.336	35.09274373
717.519	35.12664627
717.702	35.17019717
717.885	35.22276755
718.069	35.25465251
718.252	35.28536817
718.435	35.33041663
718.618	35.38043802
718.801	35.4290062
718.985	35.47361015
719.168	35.50915033
719.351	35.54230836
719.534	35.57933634
719.717	35.62155298
719.9	35.66024553
720.083	35.68937801
720.266	35.73052261
720.449	35.77570772
720.632	35.80920931
720.815	35.84591405
720.998	35.87919417
721.181	35.91854027
721.364	35.95443518
721.547	35.987012
721.73	36.02425826
721.913	36.06306018
722.096	36.10318423
722.279	36.12514009
722.461	36.16308778
722.644	36.19803143
722.827	36.22791353
723.01	36.26351989
723.193	36.30160262
723.376	36.33312566
723.558	36.3710005
723.741	36.39831359
723.924	36.43924979
724.107	36.47149208
724.289	36.4927061
724.472	36.51992794
724.655	36.55173992
724.837	36.59622235
725.02	36.62943499
725.203	36.66549304
725.385	36.69915678
725.568	36.73188064
725.75	36.7640953
725.933	36.79846959
726.115	36.83732857
726.298	36.86762759
726.481	36.90175375
726.663	36.93608648
726.845	36.97141886
727.028	37.0048842
727.21	37.04934073
727.393	37.07249803
727.575	37.11209198
727.758	37.14648452
727.94	37.17545957
728.122	37.21731968
728.305	37.26392331
728.487	37.29134962
728.67	37.31530402
728.852	37.34634813
729.034	37.38565203
729.216	37.41843731
729.399	37.44962185
729.581	37.47886049
729.763	37.51676858
729.945	37.54847647
730.128	37.57323299
730.31	37.59836595
730.492	37.63283277
730.674	37.66776628
730.856	37.69795564
731.039	37.71991842
731.221	37.7569513
731.403	37.79118336
731.585	37.82350046
731.767	37.8535958
731.949	37.8831261
732.131	37.90966328
732.313	37.93786584
732.495	37.97017834
732.677	38.00163745
732.859	38.03051607
733.041	38.06195629
733.223	38.08665887
733.405	38.11964568
733.587	38.14028288
733.769	38.17023421
733.951	38.19900578
734.132	38.2316307
734.314	38.25405336
734.496	38.27587313
734.678	38.30696057
734.86	38.33930827
735.042	38.36906486
735.223	38.39121495
735.405	38.41612031
735.587	38.44652701
735.769	38.47503405
735.95	38.50376894
736.132	38.54136017
736.314	38.5696775
736.495	38.60002966
736.677	38.62069789
736.859	38.64597192
737.04	38.67500945
737.222	38.70138781
737.403	38.72900905
737.585	38.75483498
737.767	38.78428482
737.948	38.80982836
738.13	38.83298883
738.311	38.85242821
738.493	38.87818916
738.674	38.89675417
738.856	38.91645854
739.037	38.93887729
739.219	38.96543618
739.4	38.98491719
739.581	39.00910333
739.763	39.02408829
739.944	39.0366168
740.125	39.05296413
740.307	39.07539884
740.488	39.09623807
740.669	39.11507183
740.851	39.14318846
741.032	39.16363998
741.213	39.1826742
741.395	39.2030056
741.576	39.22493261
741.757	39.24171637
741.938	39.27318186
742.119	39.31007966
742.301	39.32904174
742.482	39.35169667
742.663	39.37947999
742.844	39.40035571
743.025	39.42374636
743.206	39.44717193
743.387	39.46807915
743.568	39.49590402
743.749	39.52376575
743.93	39.54881579
744.111	39.55329855
744.292	39.58122801
744.473	39.61020477
744.654	39.62767925
744.835	39.64329066
745.016	39.67360847
745.197	39.69028866
745.378	39.71326297
745.559	39.73727536
745.74	39.76036335
745.921	39.77452917
746.102	39.79937414
746.282	39.83131951
746.463	39.85512791
746.644	39.88871852
746.825	39.90280335
747.006	39.93308336
747.186	39.95345828
747.367	39.9820169
747.548	40.00577432
747.728	40.02435767
747.909	40.05813691
748.09	40.07969088
748.27	40.09419226
748.451	40.11931145
748.632	40.1460994
748.812	40.16287623
748.993	40.18521727
749.173	40.20224678
749.354	40.22681962
749.535	40.24457224
749.715	40.2678162
749.896	40.28623008
750.076	40.29079592
750.257	40.30852205
750.437	40.32146143
750.618	40.34578527
750.798	40.35410211
750.978	40.37335143
751.159	40.38119064
751.339	40.39565706
751.52	40.4117197
751.7	40.41988813
751.88	40.4306121
752.061	40.44402219
752.241	40.45586632
752.421	40.46655374
752.601	40.47808118
752.782	40.5047323
752.962	40.51632306
753.142	40.53239634
753.322	40.54450554
753.503	40.5564812
753.683	40.56845895
753.863	40.59169103
754.043	40.59412079
754.223	40.59720248
754.403	40.60682515
754.583	40.62915192
754.764	40.63298876
754.944	40.65054538
755.124	40.66193446
755.304	40.68319168
755.484	40.70457581
755.664	40.72391453
755.844	40.75898018
756.024	40.77600707
756.204	40.80222013
756.384	40.83542158
756.564	40.84864165
756.743	40.87937493
756.923	40.89991294
757.103	40.9212989
757.283	40.94731346
757.463	40.96828879
757.643	40.98565592
757.823	41.02880547
758.002	41.07180191
758.182	41.10141089
758.362	41.12596481
758.542	41.15718463
758.721	41.18225042
758.901	41.20953125
759.081	41.24480866
759.261	41.27839091
759.44	41.30413773
759.62	41.3107948
759.8	41.33427014
759.979	41.36031433
760.159	41.37512649
760.338	41.40278768
760.518	41.41585133
760.698	41.44340277
760.877	41.4745194
761.057	41.49832712
761.236	41.52596154
761.416	41.54503843
761.595	41.55617676
761.775	41.56527279
761.954	41.57062547
762.133	41.59808577
762.313	41.6237136
762.492	41.64044114
762.672	41.65013111
762.851	41.66005235
763.03	41.67330084
763.21	41.68363529
763.389	41.70014665
763.568	41.70448715
763.748	41.71369388
763.927	41.73269034
764.106	41.73497777
764.286	41.74318356
764.465	41.75542796
764.644	41.75767394
764.823	41.76182431
765.002	41.76747616
765.182	41.77563759
765.361	41.7893036
765.54	41.80408986
765.719	41.83095241
765.898	41.83297694
766.077	41.84369094
766.256	41.85456984
766.435	41.8739313
766.614	41.88760024
766.793	41.89489173
766.972	41.90973251
767.151	41.92020587
767.33	41.94087268
767.509	41.95131298
767.688	41.94921186
767.867	41.96701757
768.046	41.98643836
768.225	41.99288509
768.404	42.00591561
768.583	42.02277085
768.762	42.04435482
768.94	42.0656844
769.119	42.07552802
769.298	42.09032672
769.477	42.10422739
769.656	42.11705922
769.834	42.11825986
770.013	42.12303253
770.192	42.14591877
770.37	42.16016291
770.549	42.17784396
770.728	42.18182839
770.906	42.20420061
771.085	42.22244848
771.264	42.24349066
771.442	42.261962
771.621	42.2819093
771.799	42.29242072
771.978	42.30371941
772.157	42.31446707
772.335	42.322817
772.514	42.32520414
772.692	42.33124832
772.871	42.34789754
773.049	42.35910228
773.228	42.36758009
773.406	42.38014982
773.584	42.3999923
773.763	42.41030458
773.941	42.40927625
774.119	42.40545971
774.298	42.41950651
774.476	42.43653145
774.655	42.4509188
774.833	42.46406306
775.011	42.46994755
775.189	42.49128587
775.368	42.50517733
775.546	42.52096455
775.724	42.5449398
775.902	42.56447202
776.08	42.58641676
776.259	42.60702398
776.437	42.62068767
776.615	42.62871365
776.793	42.6517114
776.971	42.66454631
777.149	42.67489287
777.327	42.69562097
777.505	42.71707114
777.683	42.73893954
777.861	42.77001569
778.04	42.79095651
778.218	42.81000514
778.395	42.82536199
778.573	42.83463266
778.751	42.85718008
778.929	42.87414105
779.107	42.87747864
779.285	42.88999599
779.463	42.89579204
779.641	42.9066985
779.819	42.91587372
779.997	42.92269498
780.174	42.94174872
780.352	42.96951536
780.53	42.97022493
780.708	42.97513513
780.886	43.00465514
781.063	43.0090076
781.241	43.0265244
781.419	43.04555738
781.596	43.0538246
781.774	43.06070589
781.952	43.06594096
782.129	43.07065247
782.307	43.08482184
782.485	43.09755617
782.662	43.09792182
782.84	43.11516786
783.017	43.12601266
783.195	43.14721934
783.372	43.16536281
783.55	43.17057332
783.727	43.17814456
783.905	43.19117787
784.082	43.18783753
784.26	43.20400944
784.437	43.21504261
784.615	43.20529509
784.792	43.21811918
784.969	43.23584954
785.147	43.23386503
785.324	43.23831234
785.501	43.24332352
785.679	43.26496755
785.856	43.27443271
786.033	43.27393845
786.211	43.28635748
786.388	43.30238374
786.565	43.30622375
786.742	43.32213631
786.92	43.33030745
787.097	43.33432369
787.274	43.34991252
787.451	43.37699203
787.628	43.38908026
787.805	43.4005777
787.982	43.41628235
788.16	43.42563342
788.337	43.4556894
788.514	43.46381089
788.691	43.46144245
788.868	43.48432842
789.045	43.50704141
789.222	43.51863007
789.399	43.52686365
789.576	43.5411913
789.753	43.55318385
789.93	43.54407316
790.106	43.55828077
790.283	43.57294061
790.46	43.59238271
790.637	43.58811916
790.814	43.59939227
790.991	43.6226624
791.168	43.62096614
791.344	43.63307324
791.521	43.65478876
791.698	43.66080941
791.875	43.67696424
792.051	43.6813474
792.228	43.70213478
792.405	43.72064532
792.581	43.72723992
792.758	43.73721299
792.935	43.76258871
793.111	43.77425842
793.288	43.7865759
793.465	43.80033418
793.641	43.81838476
793.818	43.82917925
793.994	43.83611695
794.171	43.8420894
794.347	43.86037602
794.524	43.87531127
794.7	43.87850529
794.877	43.87708716
795.053	43.8700252
795.23	43.87627454
795.406	43.88748013
795.583	43.89797345
795.759	43.89961562
795.935	43.89581806
796.112	43.89660214
796.288	43.90637682
796.464	43.89520974
796.641	43.89172682
796.817	43.90638703
796.993	43.93456524
797.169	43.95851214
797.346	43.98054531
797.522	43.99103722
797.698	44.00273702
797.874	44.01746907
798.051	44.02212418
798.227	44.03588081
798.403	44.05691242
798.579	44.08888093
798.755	44.11261474
798.931	44.12018835
799.107	44.12616961
799.283	44.12903976
799.459	44.14669595
799.635	44.16248769
799.811	44.17364852
799.987	44.17217836
800.163	44.19930969
800.339	44.21281647
800.515	44.21839769
800.691	44.19569837
800.867	44.19119416
801.043	44.19106391
801.219	44.19267945
801.395	44.20047356
801.571	44.18947865
801.746	44.20957701
801.922	44.20224096
802.098	44.20801329
802.274	44.20754004
802.45	44.21255858
802.625	44.22127351
802.801	44.21707152
802.977	44.22629103
803.152	44.23505218
803.328	44.23829901
803.504	44.24522484
803.679	44.25951839
803.855	44.25888707
804.031	44.25468045
804.206	44.25595896
804.382	44.27423836
804.557	44.2903857
804.733	44.30657542
804.909	44.29435815
805.084	44.29723927
805.26	44.28778677
805.435	44.29166501
805.61	44.31297938
805.786	44.29869477
805.961	44.30918293
806.137	44.32322951
806.312	44.30050016
806.488	44.30893183
806.663	44.31377615
806.838	44.31633786
807.014	44.32794911
807.189	44.33444719
807.364	44.32739673
807.54	44.34788627
807.715	44.34587105
807.89	44.36523874
808.065	44.35421998
808.241	44.3695848
808.416	44.33775295
808.591	44.37584865
808.766	44.39573106
808.941	44.42058743
809.116	44.43694525
809.291	44.43462543
809.467	44.44171575
809.642	44.43102918
809.817	44.45119237
809.992	44.47895197
810.167	44.51320681
810.342	44.53997997
810.517	44.53064946
810.692	44.53385941
810.867	44.56332725
811.042	44.57009466
811.217	44.56353482
811.392	44.59956451
811.567	44.59322186
811.741	44.59910196
811.916	44.57091873
812.091	44.61553737
812.266	44.60573586
812.441	44.61727353
812.616	44.65213202
812.79	44.64821843
812.965	44.66160904
813.14	44.67549361
813.315	44.68655576
813.489	44.69119135
813.664	44.70003536
813.839	44.67380373
814.013	44.66368024
814.188	44.67790928
814.363	44.69753428
814.537	44.68216655
814.712	44.70908511
814.887	44.71525593
815.061	44.73989945
815.236	44.74530306
815.41	44.74821334
815.585	44.77193449
815.759	44.77140187
815.934	44.78762295
816.108	44.79851361
816.283	44.79169051
816.457	44.78393935
816.631	44.78319968
816.806	44.80472059
816.98	44.84024227
817.155	44.80244027
817.329	44.82482893
817.503	44.86682992
817.678	44.88751223
817.852	44.9033921
818.026	44.89606807
818.201	44.91965169
818.375	44.88997902
818.549	44.91323588
818.723	44.87605847
818.897	44.87057374
819.072	44.89955685
819.246	44.90965985
819.42	44.92760215
819.594	44.92326031
819.768	44.92528833
819.942	44.93903782
820.116	44.95865043
820.29	44.96518637
820.465	44.94168535
820.639	44.93945628
820.813	44.95020703
820.987	44.94650236
821.161	44.92357919
821.335	44.94500876
821.509	44.94666267
821.682	44.98427798
821.856	44.98054593
822.03	44.9898945
822.204	44.98508197
822.378	44.98584985
822.552	45.00973604
822.726	44.98883703
822.9	44.99330808
823.073	44.96963915
823.247	44.96091692
823.421	44.94471205
823.595	44.94303647
823.768	44.90230473
823.942	44.90542104
824.116	44.90464626
824.289	44.89489932
824.463	44.92414951
824.637	44.9322254
824.81	44.95683556
824.984	44.94856035
825.158	44.94554389
825.331	44.91800884
825.505	44.91384755
825.678	44.94517879
825.852	44.93672245
826.025	44.97386194
826.199	44.9756829
826.372	44.98444625
826.546	45.01245519
826.719	45.01988786
826.893	45.06343435
827.066	45.08873078
827.24	45.07460563
827.413	45.12183014
827.586	45.14165906
827.76	45.14567608
827.933	45.13284224
828.106	45.12900019
828.28	45.14464028
828.453	45.14289577
828.626	45.12946272
828.799	45.14081083
828.973	45.141652
829.146	45.15690318
829.319	45.15903508
829.492	45.15168894
829.665	45.14830289
829.839	45.14624447
830.012	45.14414881
830.185	45.10126772
830.358	45.14654893
830.531	45.13395312
830.704	45.12177076
830.877	45.14994018
831.05	45.12959454
831.223	45.10547428
831.396	45.13865645
831.569	45.1540111
831.742	45.15092929
831.915	45.16059693
832.088	45.15323534
832.261	45.16090987
832.434	45.18066821
832.607	45.17360379
832.779	45.15792008
832.952	45.14645856
833.125	45.17422736
833.298	45.16392642
833.471	45.21644917
833.643	45.26993315
833.816	45.28669109
833.989	45.23920203
834.162	45.24006063
834.334	45.22228366
834.507	45.19799586
834.68	45.20985768
834.852	45.24497206
835.025	45.26023045
835.198	45.2810449
835.37	45.30747786
835.543	45.30720336
835.715	45.29855005
835.888	45.31956392
836.061	45.3231665
836.233	45.38245294
836.406	45.39010746
836.578	45.42383285
836.751	45.44197125
836.923	45.44817682
837.095	45.392565
837.268	45.35021859
837.44	45.38158525
837.613	45.38908673
837.785	45.4033751
837.957	45.44369323
838.13	45.47904792
838.302	45.51286601
838.474	45.49301783
838.647	45.47816167
838.819	45.47031595
838.991	45.44738921
839.163	45.44821861
839.336	45.46266451
839.508	45.47196505
839.68	45.48038918
839.852	45.44330329
840.024	45.4870029
840.196	45.48403599
840.368	45.46217873
840.541	45.4959366
840.713	45.54144772
840.885	45.56949429
841.057	45.5331253
841.229	45.51713046
841.401	45.44751747
841.573	45.40770452
841.745	45.37389531
841.917	45.34520844
842.089	45.37596396
842.261	45.34305572
842.432	45.35564193
842.604	45.39463834
842.776	45.40690081
842.948	45.43732586
843.12	45.41329405
843.292	45.39124214
843.464	45.39500066
843.635	45.30989966
843.807	45.26454695
843.979	45.30779737
844.151	45.28372272
844.322	45.23895594
844.494	45.29700759
844.666	45.28010548
844.837	45.29650637
845.009	45.36758961
845.181	45.39235045
845.352	45.39904306
845.524	45.42828421
845.695	45.44209723
845.867	45.4601743
846.039	45.47403364
846.21	45.41955104
846.382	45.35503492
846.553	45.34758382
846.725	45.32252254
846.896	45.31410015
847.068	45.27096027
847.239	45.32017892
847.41	45.3821479
847.582	45.31760203
847.753	45.3567889
847.925	45.43566608
848.096	45.37931476
848.267	45.38006721
848.439	45.43930231
848.61	45.41653914
848.781	45.3966355
848.952	45.42268047
849.124	45.37236675
849.295	45.35029473
849.466	45.38990153
849.637	45.34957241
849.808	45.36191188
849.98	45.43026192
850.151	45.38837301
850.322	45.48202617
850.493	45.47476477
850.664	45.51997632
850.835	45.46671901
851.006	45.43654536
851.177	45.46385842
851.348	45.45583117
851.519	45.43637345
851.69	45.47424032
851.861	45.57237949
852.032	45.60938343
852.203	45.67252644
852.374	45.70847443
852.545	45.75025202
852.716	45.75202564
852.887	45.76415796
853.057	45.73199593
853.228	45.79782455
853.399	45.77297862
853.57	45.73983247
853.741	45.77182115
853.911	45.80295148
854.082	45.82702013
854.253	45.82852781
854.424	45.90979928
854.594	45.98214602
854.765	46.0028756
854.936	45.95615312
855.106	45.89433557
855.277	45.82427244
855.447	45.76793983
855.618	45.67098142
855.789	45.59944732
855.959	45.60840318
856.13	45.5929617
856.3	45.68512222
856.471	45.65622761
856.641	45.6658102
856.812	45.63189612
856.982	45.68133151
857.153	45.68404389
857.323	45.65516787
857.493	45.56070255
857.664	45.52299186
857.834	45.46983585
858.004	45.43087017
858.175	45.37804461
858.345	45.35276207
858.515	45.41102544
858.686	45.46032017
858.856	45.53997731
859.026	45.56341011
859.196	45.57799701
859.367	45.67929412
859.537	45.72205971
859.707	45.6958198
859.877	45.68488497
860.047	45.64928968
860.217	45.65257498
860.387	45.70952562
860.558	45.69996
860.728	45.73479281
860.898	45.76649356
861.068	45.68395998
861.238	45.80494432
861.408	45.86922896
861.578	45.89573726
861.748	45.89283983
861.918	45.872635
862.088	45.81661606
862.257	45.77313824
862.427	45.71026623
862.597	45.71586168
862.767	45.74048285
862.937	45.60307725
863.107	45.5602728
863.277	45.53188334
863.446	45.56021253
863.616	45.61435073
863.786	45.68432207
863.956	45.59742772
864.125	45.61100815
864.295	45.51663442
864.465	45.47878212
864.634	45.48668643
864.804	45.38592097
864.974	45.35340182
865.143	45.35062672
865.313	45.27245944
865.482	45.29778283
865.652	45.32542656
865.822	45.25785127
865.991	45.2079983
866.161	45.14984215
866.33	45.10090821
866.5	45.28176069
866.669	45.27527685
866.838	45.20230615
867.008	45.03748342
867.177	45.07775728
867.347	44.95877497
867.516	44.98929622
867.685	45.02230968
867.855	45.12630457
868.024	45.20553026
868.193	45.27783911
868.363	45.29972926
868.532	45.3452897
868.701	45.39625196
868.87	45.49182884
869.04	45.48165229
869.209	45.33696854
869.378	45.46409211
869.547	45.55773813
869.716	45.58159873
869.885	45.67625629
870.055	45.52099409
870.224	45.50042174
870.393	45.58696675
870.562	45.64271147
870.731	45.57371014
870.9	45.66352851
871.069	45.85556439
871.238	45.92252643
871.407	45.92646456
871.576	45.9169381
871.745	45.87957266
871.914	45.87702207
872.083	45.89745298
872.251	45.8156211
872.42	45.80015562
872.589	45.65583428
872.758	45.80257314
872.927	45.74003526
873.096	45.60237562
873.264	45.56801485
873.433	45.48994593
873.602	45.52012144
873.771	45.57642073
873.939	45.49667434
874.108	45.5168074
874.277	45.48385093
874.445	45.34221705
874.614	45.03782438
874.783	44.85040543
874.951	44.82681932
875.12	44.79368465
875.288	44.87787775
875.457	44.9204206
875.625	44.83723439
875.794	44.84588296
875.962	44.80246152
876.131	44.95833806
876.299	44.89487633
876.468	44.79518486
876.636	44.81582678
876.805	44.88288729
876.973	44.8880814
877.141	44.99890599
877.31	45.04713553
877.478	45.16192062
877.647	45.14336424
877.815	45.1876546
877.983	45.3383412
878.151	45.34993133
878.32	45.49794236
878.488	45.48870437
878.656	45.5724288
878.824	45.47773053
878.992	45.48844133
879.161	45.46403259
879.329	45.49210471
879.497	45.6416202
879.665	45.67841422
879.833	45.64460057
880.001	45.56875231
880.169	45.56982478
880.337	45.42080019
880.505	45.53419066
880.673	45.4398237
880.841	45.37098567
881.009	45.33799194
881.177	45.18063173
881.345	45.1101299
881.513	44.98254843
881.681	44.91625653
881.849	44.75769235
882.017	44.58500763
882.185	44.39331716
882.352	44.32554635
882.52	44.09813729
882.688	43.99670586
882.856	43.97363365
883.024	43.83434622
883.191	43.71682101
883.359	43.72014385
883.527	43.63318766
883.694	43.76203375
883.862	43.8868177
884.03	43.60384959
884.197	43.50137372
884.365	43.4085988
884.533	43.43530127
884.7	43.55741354
884.868	43.50415203
885.035	43.40162503
885.203	43.29540424
885.37	43.28489117
885.538	43.34295315
885.705	43.34973686
885.873	43.41269721
886.04	43.45232731
886.208	43.6031133
886.375	43.48748051
886.542	43.25321556
886.71	43.2255106
886.877	43.245896
