Data from claw2_Reflection_09-43-47-323.txt Node
Date: Wed Dec 06 09:43:47 AEST 2023
User: uqkchene_local
Spectrometer: USB4E02642
Trigger mode: 4
Integration Time (sec): 1.700000E-2
Scans to average: 10
Electric dark correction enabled: true
Nonlinearity correction enabled: false
Boxcar width: 10
XAxis mode: Wavelengths
Number of Pixels in Spectrum: 3648
>>>>>Begin Spectral Data<<<<<
179.217	228.73376623
179.432	304.81927711
179.647	277.03252033
179.862	152.53623188
180.077	111.79906542
180.293	103.75722543
180.508	107.15725806
180.723	145.4787234
180.938	1641.03773585
181.153	385.12064343
181.368	329.55623306
181.583	332.69686907
181.798	310.03950532
182.013	298.957773
182.228	305.85106383
182.443	301.42471506
182.658	304.59989354
182.873	300.67747494
183.088	302.43149226
183.303	304.48048558
183.518	308.61807827
183.733	311.9607066
183.948	314.6178072
184.162	319.47883893
184.377	314.08208463
184.592	310.76602283
184.807	306.7601208
185.022	307.22542228
185.237	309.69797162
185.452	305.50835305
185.667	307.09282276
185.882	309.20558724
186.096	303.59624247
186.311	306.56951316
186.526	309.35286891
186.741	309.98071184
186.956	310.49362477
187.17	308.0950485
187.385	308.63877196
187.6	306.60674239
187.815	307.86854768
188.03	305.09050596
188.244	303.75072653
188.459	303.81002466
188.674	298.25037226
188.889	300.30180727
189.103	299.99465355
189.318	304.7606054
189.533	303.46011334
189.747	301.70805199
189.962	303.50368425
190.177	300.92290397
190.391	300.40044937
190.606	301.14973845
190.821	299.14709474
191.035	299.94428068
191.25	296.18136322
191.465	301.15549982
191.679	306.70638391
191.894	308.55758684
192.109	309.40010223
192.323	306.87450472
192.538	307.36402124
192.752	307.5621695
192.967	306.32034478
193.181	305.66714235
193.396	302.937346
193.611	303.88594633
193.825	298.03202479
194.04	298.57088808
194.254	297.79014036
194.469	297.54247157
194.683	300.07055341
194.898	298.78411656
195.112	297.31348856
195.327	298.79631532
195.541	296.24847292
195.756	295.08919522
195.97	290.45856023
196.184	287.90015119
196.399	286.89592909
196.613	285.66377737
196.828	287.64965653
197.042	289.55329515
197.257	290.35119479
197.471	291.19869341
197.685	291.1980159
197.9	292.84982484
198.114	293.24703166
198.328	294.6759413
198.543	295.92899448
198.757	299.39349912
198.971	298.56302521
199.186	296.54026061
199.4	297.47121435
199.614	300.61713783
199.829	298.34144553
200.043	293.64253839
200.257	297.25528661
200.471	297.3871931
200.686	292.32282185
200.9	291.09906118
201.114	290.85491893
201.328	287.09651646
201.543	285.25396219
201.757	284.31942327
201.971	281.51976161
202.185	282.01577922
202.399	280.06260122
202.614	279.10324905
202.828	276.58654438
203.042	274.72653385
203.256	272.51819987
203.47	274.10833232
203.684	273.0184304
203.899	273.49322936
204.113	274.04184888
204.327	274.18172416
204.541	275.64145539
204.755	273.27434967
204.969	276.31442671
205.183	276.937275
205.397	276.56069715
205.611	275.87091097
205.825	275.30933463
206.039	273.61161252
206.253	272.94514388
206.467	273.12803744
206.681	274.28910665
206.895	273.07496252
207.109	270.12256648
207.323	272.97058471
207.537	273.5838029
207.751	273.37714833
207.965	272.23759372
208.179	270.25928335
208.393	268.25245844
208.607	264.61593786
208.821	264.48237253
209.035	267.40123349
209.249	264.26497643
209.463	261.83546482
209.677	263.13508065
209.891	264.04600302
210.104	261.70858754
210.318	263.78874956
210.532	265.40535027
210.746	265.49186564
210.96	266.42627267
211.174	264.14122359
211.387	267.27333958
211.601	269.95464517
211.815	269.4142815
212.029	269.35878538
212.243	269.72283027
212.456	268.40636627
212.67	270.73087228
212.884	272.25871273
213.098	273.79024977
213.311	273.97864019
213.525	270.12927192
213.739	275.34852142
213.953	274.63652749
214.166	272.53834219
214.38	271.43174415
214.594	274.67370384
214.807	275.1398917
215.021	274.9307771
215.235	273.76010782
215.448	271.62917988
215.662	273.10756373
215.876	272.76058632
216.089	271.91383969
216.303	270.12046401
216.516	269.9082051
216.73	267.64593273
216.944	268.4054421
217.157	268.44589795
217.371	266.62498529
217.584	267.38376231
217.798	268.80025013
218.011	272.15844031
218.225	268.10994423
218.439	267.70500059
218.652	269.60393965
218.866	268.48663006
219.079	267.2933994
219.293	265.93017793
219.506	266.6055611
219.719	267.14901478
219.933	265.62063547
220.146	264.17899623
220.36	262.87252369
220.573	262.64665484
220.787	263.28485023
221	263.30530999
221.214	265.4022552
221.427	266.20605954
221.64	265.54195499
221.854	266.14038675
222.067	264.65532185
222.28	262.82327586
222.494	261.88494107
222.707	262.75172612
222.92	263.58532502
223.134	263.79963012
223.347	263.08671555
223.56	262.59916614
223.774	260.66856126
223.987	259.82981052
224.2	259.64155949
224.414	262.07461302
224.627	261.38398013
224.84	259.62501439
225.053	258.06206223
225.267	256.93903835
225.48	256.18145138
225.693	253.26514003
225.906	250.27099894
226.119	249.33316697
226.333	246.5300844
226.546	243.73883143
226.759	243.91371549
226.972	241.04403561
227.185	240.17584712
227.398	236.93607041
227.612	236.61829005
227.825	235.77766726
228.038	234.912267
228.251	234.40387211
228.464	232.148898
228.677	231.15480301
228.89	229.69113042
229.103	229.11027821
229.316	227.84618085
229.529	227.62063436
229.743	228.12125
229.956	226.51092747
230.169	224.28518791
230.382	223.31842401
230.595	223.11463784
230.808	224.00992544
231.021	224.33745365
231.234	219.76797862
231.447	219.70347202
231.66	219.33235067
231.872	219.4589435
232.085	218.83934158
232.298	218.15249197
232.511	217.89064369
232.724	219.62422465
232.937	220.03008424
233.15	220.71213519
233.363	220.80697742
233.576	220.34389865
233.789	222.01921197
234.002	220.22069535
234.214	219.11615183
234.427	219.06841163
234.64	220.28825103
234.853	220.71644631
235.066	219.22065705
235.279	218.55444455
235.491	218.0593857
235.704	221.75941554
235.917	222.12077972
236.13	220.91419078
236.342	220.92053748
236.555	221.49427785
236.768	220.22256978
236.981	220.78947368
237.193	217.6911953
237.406	217.78246166
237.619	216.20155955
237.832	216.27661592
238.044	216.11600587
238.257	216.04297669
238.47	217.9899772
238.682	217.52091309
238.895	217.25037786
239.108	217.62038922
239.32	218.60087282
239.533	219.44776333
239.746	218.184307
239.958	219.56265628
240.171	216.85474675
240.383	216.47589933
240.596	217.88655622
240.808	218.82438351
241.021	216.34129644
241.234	217.786341
241.446	217.43391284
241.659	218.35447583
241.871	216.8935878
242.084	216.83885763
242.296	214.33476095
242.509	214.03698535
242.721	213.01586934
242.934	212.59467073
243.146	211.77022084
243.359	212.19605746
243.571	212.71733557
243.784	212.03004892
243.996	210.47796673
244.208	212.36465042
244.421	212.4964927
244.633	211.58180977
244.846	211.61444614
245.058	211.43878771
245.27	209.83308978
245.483	210.43584811
245.695	211.05378578
245.907	211.33623268
246.12	210.79407033
246.332	209.99472574
246.544	209.94371698
246.757	210.62549101
246.969	212.45558672
247.181	212.43795655
247.394	212.54584352
247.606	213.40567731
247.818	213.19405166
248.03	211.24357777
248.243	210.68924691
248.455	211.87543655
248.667	210.01274623
248.879	208.18430489
249.092	209.70227304
249.304	209.29841255
249.516	207.13872431
249.728	206.72680532
249.94	207.20582111
250.153	206.07366592
250.365	205.3160591
250.577	205.3501279
250.789	207.04081163
251.001	206.84537453
251.213	207.82894135
251.425	206.60525597
251.637	204.89995043
251.85	204.45254656
252.062	202.93167951
252.274	203.22016919
252.486	202.34596631
252.698	201.32843851
252.91	200.6605557
253.122	201.41389023
253.334	201.88814111
253.546	200.78059996
253.758	201.13501516
253.97	201.61103334
254.182	201.97408804
254.394	201.40911483
254.606	201.38376789
254.818	200.43678111
255.03	199.8833406
255.242	199.15764532
255.454	198.30770896
255.666	196.30661047
255.877	195.43776146
256.089	196.2636682
256.301	195.508963
256.513	195.99547416
256.725	194.96674664
256.937	197.66342231
257.149	196.18381049
257.361	196.86204417
257.572	196.23981595
257.784	196.55059825
257.996	196.41258918
258.208	195.61670586
258.42	195.7114866
258.631	194.21560858
258.843	194.57494174
259.055	193.84444996
259.267	194.00012416
259.479	196.16322194
259.69	195.98310643
259.902	196.28719034
260.114	197.09964933
260.325	197.60633844
260.537	197.46717288
260.749	196.69984558
260.961	197.08267323
261.172	196.67420251
261.384	194.51034624
261.596	196.56698861
261.807	194.94390074
262.019	195.40111216
262.23	194.97468458
262.442	195.73123575
262.654	194.69951437
262.865	194.67482461
263.077	195.28040034
263.288	193.78937442
263.5	194.30609624
263.712	193.81374235
263.923	191.88288432
264.135	190.9402808
264.346	191.27636507
264.558	191.98579737
264.769	190.56495303
264.981	189.67042112
265.192	191.31245121
265.404	191.2577821
265.615	190.76173313
265.827	191.34047267
266.038	190.13963459
266.25	191.00494839
266.461	189.60526316
266.673	188.89490482
266.884	188.4947113
267.095	188.66062
267.307	189.38338055
267.518	190.54852719
267.73	191.41966418
267.941	190.79492784
268.152	191.11104844
268.364	191.4956039
268.575	193.2409936
268.786	193.61093392
268.998	193.04343773
269.209	194.63982971
269.42	195.68978501
269.632	194.50392377
269.843	194.55129406
270.054	195.45855876
270.265	195.47613683
270.477	196.97816676
270.688	197.66737152
270.899	199.10076024
271.11	198.64161303
271.322	199.25605929
271.533	200.18307027
271.744	200.24324222
271.955	199.97827812
272.166	199.71550364
272.378	200.60467135
272.589	201.09365547
272.8	200.62842563
273.011	201.05154756
273.222	200.14687173
273.433	200.26935839
273.644	199.81185586
273.856	200.17158227
274.067	200.46788719
274.278	200.46999077
274.489	201.69050354
274.7	201.61507278
274.911	201.03074773
275.122	201.37442922
275.333	201.89032635
275.544	203.97520661
275.755	204.50592086
275.966	206.12103395
276.177	205.89349047
276.388	207.40696212
276.599	208.23692434
276.81	209.19444962
277.021	210.45383148
277.232	212.46477286
277.443	212.02765582
277.654	213.56250472
277.865	215.40720885
278.076	217.66813989
278.287	217.73761326
278.497	218.67149758
278.708	220.49516298
278.919	221.56684992
279.13	222.54500978
279.341	224.98322413
279.552	225.44489263
279.763	227.41906547
279.973	228.47694709
280.184	229.46564732
280.395	228.91055321
280.606	230.5746089
280.817	231.6586519
281.027	233.41272093
281.238	235.37253544
281.449	235.66296206
281.66	237.83930845
281.87	239.66231251
282.081	241.65074552
282.292	243.39829095
282.503	244.23260743
282.713	248.75488589
282.924	253.59097712
283.135	254.34489403
283.345	256.55036421
283.556	259.69713417
283.767	259.94642315
283.977	262.4588256
284.188	264.88869711
284.399	266.19547837
284.609	270.05484584
284.82	273.96057512
285.03	276.18943341
285.241	278.28602569
285.451	276.73825782
285.662	278.07458743
285.873	279.33650941
286.083	278.79030017
286.294	281.02815321
286.504	281.89897429
286.715	282.49765368
286.925	281.80573114
287.136	279.88290344
287.346	277.23839224
287.557	277.89584685
287.767	276.32871972
287.978	275.6912761
288.188	276.71799028
288.399	275.28657894
288.609	273.28017653
288.819	272.70895013
289.03	270.01463305
289.24	268.62575724
289.451	266.3793486
289.661	263.14656115
289.871	264.79793543
290.082	261.42046443
290.292	259.64769824
290.502	257.57839347
290.713	253.31805121
290.923	250.66950254
291.133	245.63580019
291.344	243.12925032
291.554	240.79339809
291.764	237.91804191
291.974	233.59566998
292.185	229.48110493
292.395	226.91963946
292.605	220.63133641
292.815	215.84033766
293.026	212.47190811
293.236	208.34668013
293.446	203.79663957
293.656	198.36806241
293.866	192.75275131
294.077	187.88326301
294.287	181.36078147
294.497	176.23026181
294.707	170.49779661
294.917	164.19037465
295.127	158.09174336
295.337	152.08838908
295.548	146.69348225
295.758	140.48840373
295.968	134.81360012
296.178	129.18512191
296.388	123.67543665
296.598	118.4769668
296.808	113.54279275
297.018	108.91595797
297.228	104.35990946
297.438	99.5254602
297.648	95.24469523
297.858	91.09302225
298.068	86.95307084
298.278	83.34888862
298.488	79.80568021
298.698	76.97793781
298.908	73.64519103
299.118	70.72421357
299.328	68.09173004
299.538	65.69188639
299.748	63.41791016
299.957	61.00184459
300.167	58.83051988
300.377	56.61782791
300.587	54.43387935
300.797	52.56249414
301.007	50.90041896
301.217	49.03713274
301.426	47.43555669
301.636	46.00935001
301.846	44.52513486
302.056	43.0331183
302.266	41.61730556
302.475	40.41386043
302.685	39.21738301
302.895	38.02391509
303.105	36.8004629
303.314	35.8033143
303.524	34.68538099
303.734	33.70192112
303.944	32.71486171
304.153	31.69410406
304.363	30.81308281
304.573	30.00037582
304.782	29.25028047
304.992	28.61089808
305.202	27.8905818
305.411	27.1855057
305.621	26.55092772
305.831	25.9223433
306.04	25.29041734
306.25	24.74957541
306.459	24.19273537
306.669	23.75238293
306.878	23.28114835
307.088	22.79761507
307.298	22.38793321
307.507	21.98480588
307.717	21.55106244
307.926	21.12174293
308.136	20.74569589
308.345	20.44593267
308.555	20.14462322
308.764	19.85646126
308.974	19.55849952
309.183	19.24451801
309.392	18.92384192
309.602	18.65364312
309.811	18.37840114
310.021	18.09723841
310.23	17.86588025
310.44	17.62878758
310.649	17.40674126
310.858	17.20363457
311.068	16.95905645
311.277	16.75344638
311.486	16.59225563
311.696	16.38655425
311.905	16.18756025
312.114	15.98731258
312.324	15.88874584
312.533	15.69332436
312.742	15.54316269
312.952	15.35872446
313.161	15.20622871
313.37	15.07415183
313.579	14.93254626
313.789	14.80407976
313.998	14.68417051
314.207	14.56867607
314.416	14.46933854
314.625	14.34169448
314.835	14.20972439
315.044	14.09271511
315.253	13.99626363
315.462	13.88318292
315.671	13.77129254
315.88	13.66991299
316.09	13.56387179
316.299	13.47329237
316.508	13.39776625
316.717	13.28415433
316.926	13.18876901
317.135	13.09393214
317.344	13.03236919
317.553	12.98367901
317.762	12.90826312
317.971	12.8760409
318.18	12.83672319
318.389	12.78689799
318.598	12.73791633
318.807	12.68362644
319.016	12.61083219
319.225	12.53141092
319.434	12.43058105
319.643	12.32675381
319.852	12.22432141
320.061	12.09011064
320.27	11.96441635
320.479	11.82516197
320.688	11.67867439
320.897	11.55822251
321.105	11.4506245
321.314	11.38884261
321.523	11.30124227
321.732	11.21383021
321.941	11.11063766
322.15	11.0268064
322.359	10.92734736
322.567	10.8448871
322.776	10.77085645
322.985	10.70189893
323.194	10.63075587
323.403	10.56538469
323.611	10.51391592
323.82	10.46770381
324.029	10.42151095
324.237	10.39254038
324.446	10.37961813
324.655	10.3614075
324.864	10.35548566
325.072	10.34739632
325.281	10.3442275
325.49	10.32889926
325.698	10.30641258
325.907	10.29398752
326.116	10.26740595
326.324	10.24797691
326.533	10.23727302
326.741	10.22459542
326.95	10.19996958
327.159	10.18028174
327.367	10.16294684
327.576	10.14320411
327.784	10.14311458
327.993	10.14322353
328.201	10.13534884
328.41	10.12441693
328.618	10.11390748
328.827	10.10688087
329.035	10.09424909
329.244	10.09571264
329.452	10.09749029
329.661	10.07739149
329.869	10.07033049
330.078	10.0464966
330.286	10.0393507
330.495	10.03735873
330.703	10.03404143
330.911	10.01280042
331.12	10.00650666
331.328	9.9960589
331.537	9.97863919
331.745	9.95855041
331.953	9.94691889
332.162	9.93793453
332.37	9.9276628
332.578	9.92746325
332.787	9.93070667
332.995	9.92289493
333.203	9.90443266
333.411	9.88120714
333.62	9.86127324
333.828	9.83391071
334.036	9.81732684
334.244	9.81010779
334.453	9.79836269
334.661	9.78055543
334.869	9.76794483
335.077	9.75692988
335.285	9.75395854
335.494	9.74738333
335.702	9.74707413
335.91	9.73658169
336.118	9.72837829
336.326	9.71655121
336.534	9.70964262
336.742	9.68146357
336.951	9.67492923
337.159	9.65180971
337.367	9.6160747
337.575	9.61862093
337.783	9.6191719
337.991	9.60108502
338.199	9.59481831
338.407	9.6139128
338.615	9.59910259
338.823	9.59028627
339.031	9.57724243
339.239	9.56033591
339.447	9.54350496
339.655	9.54298715
339.863	9.52837315
340.071	9.51227493
340.279	9.5047087
340.487	9.50191217
340.695	9.49142336
340.903	9.45824732
341.11	9.45605873
341.318	9.42723912
341.526	9.41608376
341.734	9.43505303
341.942	9.41740867
342.15	9.39900154
342.358	9.37552935
342.565	9.36188969
342.773	9.33695723
342.981	9.3379736
343.189	9.33259713
343.397	9.3168402
343.604	9.31244073
343.812	9.30514073
344.02	9.27697706
344.228	9.27087011
344.435	9.26079698
344.643	9.25584252
344.851	9.23232891
345.058	9.23537119
345.266	9.22997512
345.474	9.21900667
345.681	9.20164234
345.889	9.1947176
346.097	9.18193319
346.304	9.16774754
346.512	9.16329643
346.72	9.17495023
346.927	9.17496999
347.135	9.1658188
347.342	9.13906592
347.55	9.12876941
347.758	9.12048602
347.965	9.11286998
348.173	9.1092823
348.38	9.1081596
348.588	9.09854343
348.795	9.09126082
349.003	9.08922105
349.21	9.08598954
349.418	9.07262899
349.625	9.06489426
349.833	9.07572721
350.04	9.08658604
350.247	9.0746626
350.455	9.05941178
350.662	9.0603748
350.87	9.05601315
351.077	9.05426846
351.284	9.03428404
351.492	9.02342145
351.699	9.01776288
351.906	9.01521773
352.114	9.00016724
352.321	9.00081112
352.528	8.99798546
352.736	8.99628843
352.943	8.9817904
353.15	8.97160975
353.358	8.95740767
353.565	8.96673075
353.772	8.96949009
353.979	8.97799023
354.187	8.96371304
354.394	8.95844675
354.601	8.96118389
354.808	8.94380785
355.015	8.92877838
355.223	8.91425224
355.43	8.89751883
355.637	8.90111372
355.844	8.88504879
356.051	8.88456499
356.258	8.86994165
356.465	8.86299252
356.673	8.83525564
356.88	8.81285991
357.087	8.80710316
357.294	8.80110113
357.501	8.78524554
357.708	8.76410411
357.915	8.72767254
358.122	8.69665929
358.329	8.6664141
358.536	8.64741854
358.743	8.62477775
358.95	8.61068585
359.157	8.60173408
359.364	8.58217652
359.571	8.56704249
359.778	8.55933428
359.985	8.54625133
360.192	8.53474814
360.399	8.51245766
360.606	8.50207057
360.812	8.47956406
361.019	8.47867966
361.226	8.46053828
361.433	8.43903157
361.64	8.41872587
361.847	8.42059086
362.054	8.42043763
362.26	8.41352592
362.467	8.40635621
362.674	8.39720036
362.881	8.38127378
363.088	8.38170668
363.294	8.37540863
363.501	8.36726882
363.708	8.36444386
363.915	8.35787894
364.121	8.34951967
364.328	8.33964168
364.535	8.34042162
364.741	8.34240815
364.948	8.32821289
365.155	8.33720925
365.361	8.3258728
365.568	8.32775133
365.775	8.33587194
365.981	8.34096927
366.188	8.32432097
366.395	8.31834795
366.601	8.32427739
366.808	8.33256121
367.014	8.33367588
367.221	8.33675428
367.427	8.32891567
367.634	8.3244835
367.84	8.32633927
368.047	8.32691871
368.254	8.31862207
368.46	8.31173009
368.667	8.30926484
368.873	8.3096385
369.079	8.29484485
369.286	8.29428612
369.492	8.29387633
369.699	8.31068425
369.905	8.30360633
370.112	8.29809124
370.318	8.29347836
370.524	8.30026942
370.731	8.29694485
370.937	8.28488796
371.144	8.28165451
371.35	8.2855319
371.556	8.29316291
371.763	8.2904691
371.969	8.28622958
372.175	8.28867688
372.381	8.27767462
372.588	8.28516512
372.794	8.28591298
373	8.27699254
373.206	8.26792453
373.413	8.27400649
373.619	8.28130443
373.825	8.29205451
374.031	8.27857294
374.238	8.28822557
374.444	8.28155833
374.65	8.28558457
374.856	8.28247058
375.062	8.29349909
375.268	8.30784573
375.475	8.30427444
375.681	8.31351046
375.887	8.31896415
376.093	8.32578602
376.299	8.32369218
376.505	8.3337837
376.711	8.35710212
376.917	8.36924403
377.123	8.38072768
377.329	8.39589761
377.535	8.41482872
377.741	8.41530695
377.947	8.41981918
378.153	8.42212202
378.359	8.43088279
378.565	8.43065947
378.771	8.44211703
378.977	8.45592822
379.183	8.47150637
379.389	8.47657887
379.595	8.47793725
379.801	8.48365431
380.007	8.47009294
380.213	8.45527925
380.418	8.45150653
380.624	8.45871776
380.83	8.44954723
381.036	8.44329747
381.242	8.43867867
381.448	8.4335848
381.653	8.42402078
381.859	8.41099501
382.065	8.41292402
382.271	8.40211054
382.476	8.3885726
382.682	8.38362732
382.888	8.39252994
383.094	8.38543323
383.299	8.37297031
383.505	8.36223228
383.711	8.35545832
383.916	8.34588408
384.122	8.34473822
384.328	8.34370139
384.533	8.35250484
384.739	8.34499584
384.945	8.34827968
385.15	8.34965038
385.356	8.34815085
385.562	8.34679621
385.767	8.34319116
385.973	8.35527855
386.178	8.35433564
386.384	8.35107868
386.589	8.35528385
386.795	8.35781875
387	8.36034668
387.206	8.35767158
387.411	8.35471637
387.617	8.35476186
387.822	8.34712199
388.028	8.34041586
388.233	8.34996061
388.439	8.343517
388.644	8.3475237
388.85	8.33625996
389.055	8.34699859
389.26	8.32993563
389.466	8.307285
389.671	8.30043596
389.877	8.29437953
390.082	8.28644906
390.287	8.27438571
390.493	8.26359974
390.698	8.25625307
390.903	8.243056
391.109	8.23582822
391.314	8.21869906
391.519	8.20777508
391.724	8.19528149
391.93	8.17932398
392.135	8.17353603
392.34	8.1674886
392.545	8.15466652
392.751	8.14168331
392.956	8.11798248
393.161	8.10567814
393.366	8.08067251
393.571	8.07606282
393.776	8.0806384
393.982	8.06837596
394.187	8.06539986
394.392	8.05438631
394.597	8.03551946
394.802	8.02399211
395.007	8.01380834
395.212	8.00259847
395.417	7.99575051
395.622	7.9805867
395.827	7.9627448
396.032	7.96275366
396.237	7.95005768
396.442	7.94091046
396.647	7.92511264
396.852	7.9086971
397.057	7.90357514
397.262	7.89611986
397.467	7.8852092
397.672	7.88336213
397.877	7.87782763
398.082	7.87365997
398.287	7.86935351
398.492	7.84820067
398.697	7.84066627
398.902	7.84391589
399.107	7.84638784
399.311	7.83985964
399.516	7.83820338
399.721	7.82923026
399.926	7.83152623
400.131	7.83752546
400.336	7.83937985
400.54	7.8482473
400.745	7.8480534
400.95	7.84382871
401.155	7.84162069
401.359	7.83994249
401.564	7.84439851
401.769	7.85088696
401.974	7.86258907
402.178	7.86597357
402.383	7.8585065
402.588	7.85294749
402.792	7.8541889
402.997	7.85965724
403.202	7.86014381
403.406	7.85363122
403.611	7.85828038
403.815	7.85797172
404.02	7.85408726
404.225	7.84905761
404.429	7.84917349
404.634	7.84580166
404.838	7.83425372
405.043	7.83408941
405.247	7.83106859
405.452	7.83412112
405.656	7.83859766
405.861	7.833613
406.065	7.83385255
406.27	7.81629049
406.474	7.81469597
406.679	7.82106091
406.883	7.81962506
407.088	7.82217185
407.292	7.81456235
407.497	7.81507339
407.701	7.80971029
407.905	7.8045926
408.11	7.80554514
408.314	7.80549069
408.518	7.81529422
408.723	7.80124976
408.927	7.79203063
409.131	7.79820867
409.336	7.79459475
409.54	7.80629364
409.744	7.8008298
409.949	7.79326549
410.153	7.79535782
410.357	7.78951049
410.561	7.79772873
410.766	7.79606238
410.97	7.78692498
411.174	7.79728324
411.378	7.80048172
411.582	7.80655476
411.787	7.80634005
411.991	7.81577248
412.195	7.81659275
412.399	7.82435268
412.603	7.82998628
412.807	7.82672433
413.011	7.83035988
413.215	7.83220643
413.419	7.83104733
413.624	7.83103436
413.828	7.83775483
414.032	7.83978585
414.236	7.83822803
414.44	7.84434112
414.644	7.84734745
414.848	7.85136476
415.052	7.85373162
415.256	7.86548862
415.46	7.86457314
415.664	7.86658187
415.868	7.86940132
416.072	7.87735711
416.275	7.88155048
416.479	7.89480963
416.683	7.88936635
416.887	7.88990946
417.091	7.89556896
417.295	7.90660144
417.499	7.9130137
417.703	7.91453004
417.906	7.92164214
418.11	7.91160258
418.314	7.91512595
418.518	7.92581975
418.722	7.92990225
418.925	7.93125355
419.129	7.92968612
419.333	7.93887427
419.537	7.93507521
419.74	7.93469738
419.944	7.93697368
420.148	7.93887315
420.352	7.93951158
420.555	7.93413345
420.759	7.93305116
420.963	7.94031174
421.166	7.94077546
421.37	7.93961322
421.573	7.94148393
421.777	7.94687222
421.981	7.95641766
422.184	7.95846238
422.388	7.96838654
422.591	7.9808927
422.795	7.98783931
422.999	7.9928419
423.202	8.00228243
423.406	8.0042762
423.609	7.99656945
423.813	8.00236297
424.016	8.00582596
424.22	8.01351682
424.423	8.01953575
424.627	8.01952176
424.83	8.02525502
425.033	8.024731
425.237	8.02288429
425.44	8.01833795
425.644	8.02710242
425.847	8.03017541
426.05	8.01920639
426.254	8.00966516
426.457	8.00872296
426.66	8.0022021
426.864	8.00276532
427.067	7.99598051
427.27	7.98724373
427.474	7.98094684
427.677	7.98471549
427.88	7.98893676
428.084	7.97940383
428.287	7.97443709
428.49	7.96424902
428.693	7.96485846
428.896	7.95882133
429.1	7.95018607
429.303	7.94666452
429.506	7.93828352
429.709	7.94154969
429.912	7.93402522
430.116	7.93279314
430.319	7.94397944
430.522	7.9519807
430.725	7.95370561
430.928	7.95938635
431.131	7.9534788
431.334	7.950457
431.537	7.956876
431.74	7.95258595
431.943	7.94553201
432.146	7.9447021
432.349	7.95826328
432.552	7.96117508
432.755	7.96395795
432.958	7.95847366
433.161	7.95420855
433.364	7.9594835
433.567	7.95725825
433.77	7.95903283
433.973	7.96069148
434.176	7.95915806
434.379	7.95737132
434.582	7.94657369
434.785	7.93861376
434.988	7.93611398
435.19	7.93021401
435.393	7.92159289
435.596	7.91986738
435.799	7.91771008
436.002	7.92034558
436.205	7.927141
436.407	7.92083178
436.61	7.91611667
436.813	7.91644641
437.016	7.91716417
437.218	7.91413695
437.421	7.91939309
437.624	7.91965687
437.827	7.93093906
438.029	7.93811661
438.232	7.93540665
438.435	7.93922898
438.637	7.93679325
438.84	7.94092267
439.043	7.95101649
439.245	7.94837186
439.448	7.95327767
439.65	7.95870644
439.853	7.9557117
440.056	7.95527791
440.258	7.96069142
440.461	7.95844556
440.663	7.95701504
440.866	7.95642917
441.068	7.95768172
441.271	7.96135596
441.473	7.96540313
441.676	7.96333748
441.878	7.96954213
442.081	7.96680941
442.283	7.96729574
442.486	7.97437739
442.688	7.96971094
442.89	7.97147056
443.093	7.97635104
443.295	7.97540567
443.498	7.98927455
443.7	7.98877108
443.902	7.9926675
444.105	8.00152232
444.307	8.00878197
444.509	8.00774872
444.712	8.01333514
444.914	8.02713737
445.116	8.03567099
445.319	8.03310303
445.521	8.0363591
445.723	8.03650393
445.925	8.04659434
446.128	8.04877181
446.33	8.04765585
446.532	8.04685677
446.734	8.04391657
446.936	8.05178766
447.139	8.05293174
447.341	8.04778835
447.543	8.05401875
447.745	8.04930709
447.947	8.04782077
448.149	8.06226639
448.351	8.06154772
448.553	8.05659239
448.755	8.05431066
448.958	8.05174172
449.16	8.04249996
449.362	8.03950142
449.564	8.03803735
449.766	8.0330637
449.968	8.03556334
450.17	8.03153021
450.372	8.03246674
450.574	8.03684585
450.776	8.04746929
450.978	8.05446215
451.179	8.05083843
451.381	8.05995184
451.583	8.06198475
451.785	8.05662161
451.987	8.0560595
452.189	8.05858619
452.391	8.04565234
452.593	8.04392183
452.795	8.04709558
452.996	8.05311427
453.198	8.04798045
453.4	8.05351712
453.602	8.05011432
453.804	8.062737
454.005	8.06760041
454.207	8.0713488
454.409	8.06754647
454.611	8.06663689
454.812	8.06203632
455.014	8.05909112
455.216	8.05776985
455.417	8.06049348
455.619	8.04909511
455.821	8.05518421
456.022	8.05711767
456.224	8.05374954
456.426	8.06063275
456.627	8.05824249
456.829	8.06053333
457.031	8.06340977
457.232	8.06875931
457.434	8.07243211
457.635	8.07117083
457.837	8.07795448
458.038	8.07807985
458.24	8.07928655
458.441	8.08949197
458.643	8.08935669
458.844	8.09007335
459.046	8.09038065
459.247	8.09128296
459.449	8.09009998
459.65	8.09718304
459.852	8.10679911
460.053	8.11008954
460.254	8.10954055
460.456	8.11589001
460.657	8.11218558
460.859	8.11617666
461.06	8.12158667
461.261	8.12317332
461.463	8.11717278
461.664	8.12606369
461.865	8.13695062
462.066	8.13217253
462.268	8.12854203
462.469	8.13496776
462.67	8.12941746
462.872	8.13562544
463.073	8.13783398
463.274	8.1462279
463.475	8.14350127
463.676	8.14929725
463.878	8.14427757
464.079	8.14518468
464.28	8.1446652
464.481	8.14683553
464.682	8.14907861
464.883	8.15167253
465.085	8.15406813
465.286	8.14765566
465.487	8.14573037
465.688	8.15449702
465.889	8.15499074
466.09	8.15280714
466.291	8.15967451
466.492	8.16455227
466.693	8.15031213
466.894	8.15083771
467.095	8.15735869
467.296	8.16216719
467.497	8.16009092
467.698	8.16200849
467.899	8.16377354
468.1	8.16163103
468.301	8.16213901
468.502	8.15979231
468.703	8.16060605
468.903	8.15682243
469.104	8.15808919
469.305	8.15914779
469.506	8.16378758
469.707	8.16252777
469.908	8.16446492
470.109	8.16327603
470.309	8.16123399
470.51	8.15839315
470.711	8.15567784
470.912	8.17071872
471.112	8.17002055
471.313	8.17112331
471.514	8.17442831
471.715	8.17328979
471.915	8.17172763
472.116	8.17318819
472.317	8.17988034
472.517	8.17914453
472.718	8.18618138
472.919	8.18955778
473.119	8.19932899
473.32	8.20029473
473.521	8.20657333
473.721	8.21046602
473.922	8.21601662
474.122	8.21712947
474.323	8.21654261
474.523	8.22190605
474.724	8.22326077
474.925	8.22627121
475.125	8.23004382
475.326	8.23279915
475.526	8.23181952
475.727	8.23347052
475.927	8.24136719
476.127	8.25301884
476.328	8.25508568
476.528	8.25578709
476.729	8.26671251
476.929	8.27277475
477.13	8.27440606
477.33	8.27450749
477.53	8.28355805
477.731	8.28451829
477.931	8.28777433
478.131	8.29298829
478.332	8.29606864
478.532	8.30536932
478.732	8.30693224
478.933	8.31842667
479.133	8.32284182
479.333	8.32126997
479.533	8.32500082
479.734	8.33014615
479.934	8.33197601
480.134	8.3381177
480.334	8.34180811
480.534	8.34306688
480.735	8.3476248
480.935	8.3477215
481.135	8.34809726
481.335	8.35176864
481.535	8.35830698
481.735	8.35847422
481.935	8.36575522
482.136	8.3774707
482.336	8.37949063
482.536	8.3852898
482.736	8.38619245
482.936	8.38983167
483.136	8.3889052
483.336	8.3909492
483.536	8.39227911
483.736	8.4020257
483.936	8.40688843
484.136	8.40877618
484.336	8.40827311
484.536	8.4086535
484.736	8.41643927
484.936	8.41975896
485.135	8.42504511
485.335	8.433905
485.535	8.44212637
485.735	8.44525352
485.935	8.45391614
486.135	8.45795754
486.335	8.46049869
486.534	8.46695603
486.734	8.47037554
486.934	8.47844201
487.134	8.4880796
487.334	8.49216987
487.533	8.49932479
487.733	8.51013313
487.933	8.51287412
488.133	8.51740884
488.332	8.51995327
488.532	8.52646135
488.732	8.53606716
488.931	8.54182716
489.131	8.54719997
489.331	8.55145087
489.53	8.55002847
489.73	8.55199176
489.93	8.55875151
490.129	8.56216248
490.329	8.5638655
490.528	8.56533087
490.728	8.5697526
490.928	8.57436718
491.127	8.57773466
491.327	8.57966506
491.526	8.58629194
491.726	8.59039979
491.925	8.59250279
492.125	8.59396158
492.324	8.5985603
492.524	8.60271197
492.723	8.61049304
492.922	8.61030262
493.122	8.61536296
493.321	8.62294457
493.521	8.62793904
493.72	8.63592371
493.919	8.64284804
494.119	8.64927644
494.318	8.65670234
494.517	8.66196884
494.717	8.66870433
494.916	8.67217087
495.115	8.67307332
495.315	8.67722936
495.514	8.67805857
495.713	8.6838958
495.912	8.69303279
496.112	8.69904328
496.311	8.7090356
496.51	8.71662695
496.709	8.72713643
496.908	8.73425319
497.108	8.73868938
497.307	8.7422542
497.506	8.7468094
497.705	8.75364287
497.904	8.75768803
498.103	8.75954269
498.302	8.76241422
498.501	8.76310924
498.701	8.77371768
498.9	8.78143816
499.099	8.78870894
499.298	8.80078394
499.497	8.8075381
499.696	8.81560321
499.895	8.81937624
500.094	8.825588
500.293	8.83368991
500.492	8.83900575
500.691	8.84725072
500.89	8.85241707
501.088	8.85540421
501.287	8.86747123
501.486	8.87667514
501.685	8.88807108
501.884	8.89631035
502.083	8.9113733
502.282	8.92184468
502.481	8.93188672
502.679	8.93778508
502.878	8.94455833
503.077	8.95295862
503.276	8.96407278
503.475	8.97131867
503.673	8.98209967
503.872	8.99625513
504.071	9.00455784
504.27	9.01043518
504.468	9.01809009
504.667	9.02877459
504.866	9.03754174
505.064	9.04917054
505.263	9.05672349
505.462	9.06457658
505.66	9.07380062
505.859	9.08506971
506.058	9.09390146
506.256	9.10007699
506.455	9.11057204
506.653	9.11610671
506.852	9.13331745
507.05	9.1428142
507.249	9.14792975
507.448	9.1532503
507.646	9.16433721
507.845	9.17551004
508.043	9.18322516
508.242	9.19661019
508.44	9.21083392
508.638	9.22469146
508.837	9.2334159
509.035	9.24190874
509.234	9.2550344
509.432	9.27015434
509.631	9.28661578
509.829	9.29729184
510.027	9.30640528
510.226	9.31882152
510.424	9.33096123
510.622	9.34655695
510.821	9.364391
511.019	9.37709858
511.217	9.39523839
511.415	9.4139759
511.614	9.44003277
511.812	9.45129092
512.01	9.46564274
512.208	9.48003029
512.407	9.49759749
512.605	9.51317674
512.803	9.53231103
513.001	9.54883611
513.199	9.57214494
513.398	9.59287133
513.596	9.60972266
513.794	9.62540622
513.992	9.64214278
514.19	9.65593108
514.388	9.67734258
514.586	9.69557726
514.784	9.71375917
514.982	9.73105607
515.18	9.75102462
515.378	9.77024047
515.576	9.78987072
515.774	9.80100005
515.972	9.82252228
516.17	9.84389828
516.368	9.86390532
516.566	9.88769346
516.764	9.90687862
516.962	9.92698483
517.16	9.94637862
517.358	9.96281055
517.556	9.97606515
517.754	9.99993658
517.952	10.01878477
518.149	10.04109887
518.347	10.06860028
518.545	10.08298334
518.743	10.10059814
518.941	10.12008197
519.138	10.14554642
519.336	10.16712623
519.534	10.18411087
519.732	10.20311278
519.929	10.23373006
520.127	10.26207802
520.325	10.27956445
520.523	10.30573248
520.72	10.32481
520.918	10.34754664
521.116	10.36495857
521.313	10.39022501
521.511	10.41499846
521.709	10.43904175
521.906	10.45797049
522.104	10.4807614
522.301	10.50151458
522.499	10.52935427
522.696	10.56176348
522.894	10.59080957
523.092	10.61857569
523.289	10.6385656
523.487	10.66295318
523.684	10.69126636
523.882	10.71875932
524.079	10.73768592
524.276	10.75938395
524.474	10.79217536
524.671	10.81495096
524.869	10.84289787
525.066	10.87295706
525.264	10.90515906
525.461	10.93084452
525.658	10.95770248
525.856	10.98699397
526.053	11.02271977
526.25	11.047765
526.448	11.08507234
526.645	11.11032243
526.842	11.13600297
527.039	11.16267463
527.237	11.18818198
527.434	11.2167359
527.631	11.24425892
527.828	11.27244112
528.026	11.29972238
528.223	11.32829945
528.42	11.35537756
528.617	11.38073483
528.814	11.4144492
529.012	11.4460733
529.209	11.47341814
529.406	11.50268563
529.603	11.53370488
529.8	11.5658546
529.997	11.59454517
530.194	11.62459043
530.391	11.66000449
530.588	11.68701506
530.785	11.71873799
530.982	11.75276233
531.179	11.78309854
531.376	11.82168851
531.573	11.86318393
531.77	11.89832513
531.967	11.93003218
532.164	11.96668042
532.361	12.00417804
532.558	12.04184596
532.755	12.07924287
532.952	12.11444054
533.149	12.14625932
533.346	12.18610421
533.543	12.21836923
533.739	12.26088135
533.936	12.29545349
534.133	12.33822171
534.33	12.36922142
534.527	12.40386792
534.723	12.44580806
534.92	12.47788872
535.117	12.51291435
535.314	12.55670262
535.51	12.59552703
535.707	12.63010419
535.904	12.66937919
536.1	12.71485387
536.297	12.75328259
536.494	12.79094054
536.69	12.82647831
536.887	12.86388113
537.084	12.90055822
537.28	12.94567376
537.477	12.9853499
537.674	13.02913103
537.87	13.06377114
538.067	13.10738691
538.263	13.14793928
538.46	13.18673011
538.656	13.23115258
538.853	13.26913641
539.049	13.31417667
539.246	13.35640258
539.442	13.39870768
539.639	13.43847182
539.835	13.47022132
540.032	13.5097595
540.228	13.54274168
540.424	13.5886852
540.621	13.62806511
540.817	13.6759633
541.014	13.72086311
541.21	13.7651693
541.406	13.80821781
541.603	13.84823555
541.799	13.89270917
541.995	13.93581201
542.191	13.97484072
542.388	14.01545699
542.584	14.05998817
542.78	14.10252617
542.976	14.14600259
543.173	14.18863879
543.369	14.22922482
543.565	14.27427775
543.761	14.31345381
543.957	14.36163205
544.154	14.40215137
544.35	14.45551588
544.546	14.49875624
544.742	14.55000772
544.938	14.59057302
545.134	14.63132536
545.33	14.67517034
545.526	14.71305627
545.722	14.75781775
545.919	14.80109762
546.115	14.84444049
546.311	14.88411931
546.507	14.92883054
546.703	14.97213896
546.899	15.01879101
547.095	15.06303198
547.29	15.10426884
547.486	15.15287705
547.682	15.19529572
547.878	15.24153548
548.074	15.28896892
548.27	15.33692625
548.466	15.37731742
548.662	15.41933349
548.858	15.45953693
549.053	15.50931945
549.249	15.55210544
549.445	15.5922483
549.641	15.63824862
549.837	15.67856251
550.032	15.72602148
550.228	15.77411946
550.424	15.83025719
550.62	15.87572432
550.815	15.92494657
551.011	15.97387462
551.207	16.01943927
551.402	16.06960212
551.598	16.1093781
551.794	16.15503188
551.989	16.20326714
552.185	16.24872629
552.381	16.29545989
552.576	16.33654079
552.772	16.38630043
552.967	16.42998076
553.163	16.46898993
553.359	16.51984312
553.554	16.56960531
553.75	16.61486675
553.945	16.6686789
554.141	16.70991273
554.336	16.75903981
554.532	16.80315496
554.727	16.84775703
554.922	16.89139039
555.118	16.9280003
555.313	16.96938879
555.509	17.01580253
555.704	17.06425524
555.899	17.10547336
556.095	17.14899501
556.29	17.1967802
556.486	17.24313765
556.681	17.29521915
556.876	17.33756854
557.071	17.381758
557.267	17.43442146
557.462	17.47463855
557.657	17.52546641
557.853	17.57201568
558.048	17.61606882
558.243	17.66245665
558.438	17.70407738
558.633	17.74520565
558.829	17.7984068
559.024	17.84274066
559.219	17.88989326
559.414	17.94238953
559.609	17.98355514
559.804	18.03278939
559.999	18.07418657
560.194	18.11991126
560.39	18.17790067
560.585	18.2284881
560.78	18.27659085
560.975	18.32310931
561.17	18.37478646
561.365	18.42346459
561.56	18.47927468
561.755	18.52846782
561.95	18.58119187
562.145	18.62683171
562.34	18.67481438
562.535	18.72679083
562.729	18.77868861
562.924	18.82512514
563.119	18.87686096
563.314	18.93226868
563.509	18.97899362
563.704	19.03970687
563.899	19.08792123
564.093	19.14315578
564.288	19.19075023
564.483	19.23137281
564.678	19.27623021
564.873	19.32426343
565.067	19.37577782
565.262	19.42755926
565.457	19.47327969
565.652	19.5245645
565.846	19.57310367
566.041	19.62274279
566.236	19.67369544
566.43	19.72636186
566.625	19.77081575
566.82	19.82844404
567.014	19.87719835
567.209	19.93710771
567.404	19.9880076
567.598	20.03973642
567.793	20.08039505
567.987	20.13526451
568.182	20.18689477
568.376	20.24014719
568.571	20.28445004
568.765	20.33572254
568.96	20.38919515
569.154	20.44509313
569.349	20.49734333
569.543	20.54836409
569.738	20.59650553
569.932	20.64302135
570.127	20.68852097
570.321	20.74017774
570.515	20.78506006
570.71	20.83819504
570.904	20.86979447
571.098	20.92551661
571.293	20.96177245
571.487	21.00822526
571.681	21.05414276
571.876	21.10950042
572.07	21.15258768
572.264	21.21215429
572.458	21.2651572
572.653	21.31084682
572.847	21.36248496
573.041	21.40503588
573.235	21.4458396
573.43	21.49448781
573.624	21.5529374
573.818	21.60847866
574.012	21.65859069
574.206	21.71658749
574.4	21.76999702
574.594	21.82380032
574.788	21.87590748
574.983	21.93914895
575.177	21.9745662
575.371	22.02887011
575.565	22.07700392
575.759	22.12685292
575.953	22.17868521
576.147	22.23762542
576.341	22.27794407
576.535	22.32966378
576.729	22.3898621
576.923	22.43792761
577.117	22.49174279
577.31	22.55068639
577.504	22.59420452
577.698	22.63358769
577.892	22.67608156
578.086	22.72190057
578.28	22.76659233
578.474	22.80578797
578.668	22.85367045
578.861	22.89644274
579.055	22.94718751
579.249	23.00264247
579.443	23.04685295
579.636	23.10026014
579.83	23.14875168
580.024	23.20134929
580.218	23.24283661
580.411	23.28648599
580.605	23.33361805
580.799	23.37833408
580.992	23.43276956
581.186	23.489527
581.38	23.53164092
581.573	23.60130715
581.767	23.65122962
581.961	23.69556546
582.154	23.75194393
582.348	23.80379101
582.541	23.86910703
582.735	23.92347813
582.928	23.98720958
583.122	24.03076711
583.315	24.08533821
583.509	24.14704055
583.702	24.20611887
583.896	24.26971128
584.089	24.31583234
584.283	24.36880048
584.476	24.42922035
584.67	24.48674561
584.863	24.54160968
585.056	24.59340314
585.25	24.64060766
585.443	24.69123443
585.636	24.73106044
585.83	24.79306987
586.023	24.86032809
586.216	24.91869616
586.41	24.97807866
586.603	25.02737876
586.796	25.07672576
586.989	25.12931346
587.183	25.18842543
587.376	25.24117012
587.569	25.30189455
587.762	25.34838774
587.955	25.39784416
588.149	25.45177975
588.342	25.51093363
588.535	25.57609955
588.728	25.62655061
588.921	25.67762749
589.114	25.73744856
589.307	25.79667186
589.5	25.86250185
589.693	25.90723146
589.886	25.95532844
590.08	25.99656884
590.273	26.05227714
590.466	26.10281808
590.659	26.15966619
590.852	26.21369867
591.044	26.27266275
591.237	26.3280039
591.43	26.37898141
591.623	26.4215947
591.816	26.47025065
592.009	26.53366539
592.202	26.58953773
592.395	26.63522544
592.588	26.67734093
592.781	26.73395098
592.973	26.7892236
593.166	26.84257888
593.359	26.89308868
593.552	26.94175937
593.745	26.9997694
593.937	27.05560987
594.13	27.11366694
594.323	27.16255877
594.515	27.21788659
594.708	27.25577692
594.901	27.30736828
595.094	27.35880414
595.286	27.40904947
595.479	27.46193626
595.672	27.53048252
595.864	27.59657999
596.057	27.6391698
596.249	27.68387464
596.442	27.74444301
596.635	27.79895494
596.827	27.8553311
597.02	27.89595391
597.212	27.93195461
597.405	27.98107931
597.597	28.03304636
597.79	28.0835329
597.982	28.12855321
598.175	28.17773413
598.367	28.22820588
598.559	28.26506683
598.752	28.31677115
598.944	28.36895891
599.137	28.41466532
599.329	28.45889507
599.521	28.49920058
599.714	28.52922612
599.906	28.57032347
600.098	28.60422399
600.291	28.64868236
600.483	28.69766924
600.675	28.73901732
600.868	28.77647936
601.06	28.83622975
601.252	28.88345971
601.444	28.92578985
601.637	28.96641825
601.829	29.00632532
602.021	29.05731426
602.213	29.09621992
602.405	29.12224242
602.597	29.17289244
602.789	29.21544462
602.982	29.2487674
603.174	29.28482092
603.366	29.32796232
603.558	29.37683536
603.75	29.43154229
603.942	29.46821478
604.134	29.51758104
604.326	29.56143884
604.518	29.58257489
604.71	29.62490022
604.902	29.656386
605.094	29.68481355
605.286	29.73202971
605.478	29.76991625
605.67	29.800246
605.862	29.84359267
606.054	29.87351663
606.246	29.92973847
606.437	29.97693639
606.629	30.02025158
606.821	30.06211955
607.013	30.10874916
607.205	30.13872952
607.397	30.18262334
607.588	30.22023531
607.78	30.24012256
607.972	30.27126376
608.164	30.29877217
608.355	30.34059335
608.547	30.3938886
608.739	30.4185276
608.93	30.45989377
609.122	30.50969559
609.314	30.54256079
609.505	30.57268688
609.697	30.60688107
609.889	30.64616063
610.08	30.67582115
610.272	30.70057408
610.463	30.74431138
610.655	30.77171942
610.847	30.80816483
611.038	30.8236071
611.23	30.86293246
611.421	30.89208944
611.613	30.92250133
611.804	30.94991725
611.996	30.98894784
612.187	31.02870964
612.379	31.06293133
612.57	31.08615021
612.761	31.14268828
612.953	31.18545591
613.144	31.20984936
613.336	31.23062394
613.527	31.27596926
613.718	31.32216616
613.91	31.3597465
614.101	31.39953937
614.292	31.44448439
614.483	31.47285963
614.675	31.50016135
614.866	31.53073618
615.057	31.57693268
615.248	31.60739974
615.44	31.62967292
615.631	31.6592241
615.822	31.70473567
616.013	31.74207625
616.204	31.78569891
616.396	31.81676846
616.587	31.85300942
616.778	31.8681391
616.969	31.88246122
617.16	31.90804845
617.351	31.94543202
617.542	31.96124008
617.733	31.97974946
617.924	31.99633433
618.115	32.02354147
618.306	32.03442986
618.497	32.05281117
618.688	32.0791865
618.879	32.11491121
619.07	32.15243597
619.261	32.18486546
619.452	32.21943289
619.643	32.247549
619.834	32.29429564
620.025	32.30162918
620.216	32.3100225
620.407	32.33314269
620.597	32.36512459
620.788	32.40229219
620.979	32.43735605
621.17	32.46369892
621.361	32.4799229
621.551	32.51677127
621.742	32.55518013
621.933	32.589567
622.124	32.63419282
622.314	32.65690728
622.505	32.69596591
622.696	32.72665876
622.886	32.74471934
623.077	32.75983679
623.268	32.79124229
623.458	32.81927813
623.649	32.85539143
623.84	32.87119452
624.03	32.92312503
624.221	32.96459353
624.411	32.99646399
624.602	33.0235494
624.792	33.04634454
624.983	33.06826797
625.173	33.11579458
625.364	33.16262326
625.554	33.19666528
625.745	33.22260385
625.935	33.2435249
626.126	33.25231266
626.316	33.27706245
626.507	33.29433077
626.697	33.32560357
626.887	33.3498729
627.078	33.38623425
627.268	33.41412971
627.458	33.44072427
627.649	33.45645277
627.839	33.46604574
628.029	33.48574894
628.22	33.51950153
628.41	33.55164801
628.6	33.56211336
628.79	33.57284221
628.981	33.61026799
629.171	33.61939944
629.361	33.63723231
629.551	33.65549454
629.741	33.682636
629.932	33.71711437
630.122	33.74717608
630.312	33.77420253
630.502	33.80872483
630.692	33.82929725
630.882	33.8696619
631.072	33.893618
631.262	33.89779455
631.452	33.92262536
631.642	33.94242285
631.832	33.97157652
632.022	33.9919168
632.212	34.00817156
632.402	34.02236995
632.592	34.06257542
632.782	34.08665234
632.972	34.10363656
633.162	34.13899281
633.352	34.16864358
633.542	34.19233345
633.732	34.21253556
633.922	34.2167059
634.111	34.23815992
634.301	34.26876165
634.491	34.28454746
634.681	34.31151417
634.871	34.32698315
635.06	34.35043737
635.25	34.37889047
635.44	34.40343595
635.63	34.43241163
635.819	34.45306106
636.009	34.47162366
636.199	34.47894901
636.388	34.48033615
636.578	34.51068727
636.768	34.54007238
636.957	34.56737785
637.147	34.57734467
637.337	34.58526394
637.526	34.60400205
637.716	34.6051593
637.905	34.6284291
638.095	34.64778692
638.284	34.6521718
638.474	34.66627336
638.663	34.67086168
638.853	34.68191545
639.042	34.68514852
639.232	34.71210642
639.421	34.72718607
639.611	34.74637205
639.8	34.76848098
639.99	34.78605685
640.179	34.81421815
640.368	34.8385618
640.558	34.82413541
640.747	34.84273466
640.936	34.83584916
641.126	34.85348788
641.315	34.87183542
641.504	34.88122466
641.694	34.89863132
641.883	34.91387358
642.072	34.91952286
642.261	34.94239733
642.451	34.96135357
642.64	34.98249137
642.829	35.01353499
643.018	35.02817181
643.207	35.02750691
643.397	35.03228663
643.586	35.04088237
643.775	35.060984
643.964	35.07068179
644.153	35.07794392
644.342	35.10416094
644.531	35.12860949
644.72	35.14712678
644.909	35.17676075
645.098	35.17908286
645.287	35.18945919
645.476	35.21632339
645.665	35.2347106
645.854	35.25533907
646.043	35.27818648
646.232	35.28724822
646.421	35.30008285
646.61	35.30266614
646.799	35.28498446
646.988	35.32176138
647.177	35.3412126
647.365	35.35872017
647.554	35.38169477
647.743	35.38448677
647.932	35.39449877
648.121	35.40002229
648.309	35.40209592
648.498	35.41375754
648.687	35.41940322
648.876	35.42739903
649.064	35.45410368
649.253	35.47812921
649.442	35.46518557
649.63	35.47064737
649.819	35.47083444
650.008	35.48352396
650.196	35.49095399
650.385	35.49715187
650.574	35.52631579
650.762	35.55888991
650.951	35.54251341
651.139	35.54487686
651.328	35.55433504
651.516	35.53464489
651.705	35.5321857
651.893	35.54786677
652.082	35.56681329
652.27	35.58756093
652.459	35.59647443
652.647	35.59384998
652.836	35.59457155
653.024	35.59731608
653.213	35.57960473
653.401	35.60113551
653.589	35.62142732
653.778	35.63754241
653.966	35.63302391
654.154	35.65853061
654.343	35.67658672
654.531	35.68419773
654.719	35.68336307
654.908	35.69311712
655.096	35.71454686
655.284	35.7176863
655.472	35.73108963
655.661	35.73402077
655.849	35.71942679
656.037	35.71718
656.225	35.70029023
656.413	35.70655682
656.601	35.69887863
656.79	35.70948922
656.978	35.70663954
657.166	35.72564143
657.354	35.71886885
657.542	35.71005486
657.73	35.71805762
657.918	35.70545242
658.106	35.68344867
658.294	35.64398725
658.482	35.62199297
658.67	35.60793792
658.858	35.59963599
659.046	35.57813055
659.234	35.54807242
659.422	35.54367191
659.61	35.54252939
659.798	35.55318882
659.986	35.55682943
660.173	35.55185574
660.361	35.52080411
660.549	35.52304201
660.737	35.48548862
660.925	35.47995383
661.113	35.45275295
661.3	35.44113078
661.488	35.44576203
661.676	35.41868771
661.864	35.42706949
662.051	35.42408041
662.239	35.42881167
662.427	35.40801172
662.614	35.40045575
662.802	35.39219317
662.99	35.39178221
663.177	35.389527
663.365	35.37712729
663.553	35.37052519
663.74	35.35861942
663.928	35.32852709
664.115	35.33778864
664.303	35.34282418
664.49	35.31735061
664.678	35.33567104
664.866	35.31527546
665.053	35.31073011
665.24	35.30608406
665.428	35.29118155
665.615	35.27688792
665.803	35.26895601
665.99	35.25776913
666.178	35.27518344
666.365	35.2936952
666.552	35.28718074
666.74	35.26683391
666.927	35.26048319
667.114	35.28058681
667.302	35.28402722
667.489	35.28708095
667.676	35.27055165
667.864	35.27199134
668.051	35.2574453
668.238	35.26604619
668.425	35.28247755
668.613	35.28627877
668.8	35.30044256
668.987	35.31710503
669.174	35.33356283
669.361	35.33409092
669.548	35.33709949
669.736	35.33066154
669.923	35.32142989
670.11	35.29929816
670.297	35.29831465
670.484	35.31983012
670.671	35.34896085
670.858	35.34853854
671.045	35.35795582
671.232	35.36869702
671.419	35.37313908
671.606	35.38308684
671.793	35.40087967
671.98	35.415007
672.167	35.40722097
672.354	35.41835877
672.541	35.42736353
672.728	35.41538646
672.915	35.42672804
673.101	35.42616489
673.288	35.4190059
673.475	35.43806569
673.662	35.44679964
673.849	35.46717861
674.035	35.49142788
674.222	35.48622425
674.409	35.47725899
674.596	35.48289989
674.783	35.50080572
674.969	35.49568053
675.156	35.51636777
675.343	35.52354388
675.529	35.55947963
675.716	35.57266117
675.903	35.58971159
676.089	35.62502977
676.276	35.64329345
676.462	35.65525548
676.649	35.6828606
676.836	35.6921515
677.022	35.70840603
677.209	35.75986989
677.395	35.7826585
677.582	35.81757912
677.768	35.84515222
677.955	35.88080751
678.141	35.90965457
678.328	35.9537339
678.514	35.98282743
678.701	35.99546874
678.887	36.01636681
679.073	36.0554354
679.26	36.10200257
679.446	36.12760222
679.632	36.15174612
679.819	36.16978817
680.005	36.20812624
680.191	36.24654336
680.378	36.27115412
680.564	36.32077276
680.75	36.36428491
680.936	36.39944554
681.123	36.42245769
681.309	36.46279451
681.495	36.49314398
681.681	36.54261402
681.867	36.5824114
682.054	36.64700582
682.24	36.68598571
682.426	36.74992577
682.612	36.79916689
682.798	36.85925408
682.984	36.89924319
683.17	36.93313824
683.356	36.9729197
683.542	37.03589492
683.728	37.10705639
683.914	37.15396174
684.1	37.22598832
684.286	37.31781525
684.472	37.38128786
684.658	37.45333311
684.844	37.54086249
685.03	37.593267
685.216	37.67832325
685.402	37.74746512
685.588	37.80945811
685.774	37.86239119
685.96	37.93546691
686.145	38.00719294
686.331	38.09406929
686.517	38.18271316
686.703	38.26247371
686.889	38.34288538
687.074	38.42644616
687.26	38.53220127
687.446	38.61414466
687.631	38.67484755
687.817	38.76915451
688.003	38.83848444
688.189	38.90364715
688.374	38.98599093
688.56	39.07343114
688.745	39.15979754
688.931	39.2605036
689.117	39.31584866
689.302	39.41790327
689.488	39.50600143
689.673	39.61036575
689.859	39.68715611
690.044	39.7788151
690.23	39.85092326
690.415	39.93127898
690.601	40.01525243
690.786	40.11244114
690.972	40.21164126
691.157	40.27831091
691.343	40.37143942
691.528	40.49279274
691.713	40.56411411
691.899	40.6546874
692.084	40.74298564
692.269	40.82304532
692.455	40.89053127
692.64	40.94865178
692.825	41.06834954
693.011	41.17792912
693.196	41.25573342
693.381	41.34021911
693.566	41.4098325
693.752	41.47427811
693.937	41.56181853
694.122	41.64588275
694.307	41.73429287
694.492	41.82689605
694.678	41.90361526
694.863	41.97335697
695.048	42.07491868
695.233	42.14502522
695.418	42.1925853
695.603	42.26792764
695.788	42.33431979
695.973	42.41568604
696.158	42.48337223
696.343	42.56563398
696.528	42.64343871
696.713	42.70168028
696.898	42.76316805
697.083	42.8328064
697.268	42.91374524
697.453	42.98880419
697.638	43.09242577
697.823	43.15793492
698.008	43.21851575
698.192	43.29440165
698.377	43.3739884
698.562	43.44463104
698.747	43.52100913
698.932	43.57324905
699.117	43.66962414
699.301	43.76337437
699.486	43.8287706
699.671	43.90724478
699.856	43.96013738
700.04	44.05528571
700.225	44.14386535
700.41	44.23541692
700.594	44.29500766
700.779	44.35536311
700.964	44.40307246
701.148	44.4969301
701.333	44.58889569
701.517	44.64856641
701.702	44.68960866
701.887	44.75300008
702.071	44.82485958
702.256	44.86485427
702.44	44.901325
702.625	44.983986
702.809	45.0411386
702.994	45.09715145
703.178	45.16147447
703.362	45.24662978
703.547	45.30346166
703.731	45.36953619
703.916	45.40869573
704.1	45.44721568
704.284	45.47326095
704.469	45.51810436
704.653	45.60317232
704.837	45.67317515
705.022	45.71103325
705.206	45.72624232
705.39	45.79266376
705.575	45.8680589
705.759	45.91677493
705.943	45.9557989
706.127	46.03727367
706.311	46.12879858
706.496	46.15141586
706.68	46.23716084
706.864	46.24690508
707.048	46.299996
707.232	46.34187715
707.416	46.40185484
707.6	46.45494928
707.785	46.52591977
707.969	46.5895903
708.153	46.66762387
708.337	46.73644563
708.521	46.77870093
708.705	46.82460573
708.889	46.85839838
709.073	46.92503512
709.257	46.97530663
709.441	47.02580286
709.624	47.09950667
709.808	47.14856831
709.992	47.19974196
710.176	47.21785749
710.36	47.29643734
710.544	47.32136279
710.728	47.41726616
710.912	47.4695586
711.095	47.55247005
711.279	47.61414938
711.463	47.68638225
711.647	47.73547145
711.83	47.79828678
712.014	47.81581586
712.198	47.87627139
712.382	47.93293294
712.565	47.99766836
712.749	48.06972494
712.933	48.10904174
713.116	48.15992106
713.3	48.22491554
713.483	48.28652436
713.667	48.36230979
713.851	48.40480872
714.034	48.47128747
714.218	48.52357663
714.401	48.57605609
714.585	48.61608159
714.768	48.66865631
714.952	48.71523096
715.135	48.75216104
715.319	48.81048496
715.502	48.85505258
715.686	48.87673741
715.869	48.98157415
716.052	48.99707471
716.236	49.04272417
716.419	49.13603889
716.602	49.19429761
716.786	49.2921467
716.969	49.33046404
717.152	49.37561224
717.336	49.41363618
717.519	49.46354853
717.702	49.52288392
717.885	49.56658936
718.069	49.61237026
718.252	49.67584981
718.435	49.73486235
718.618	49.77485288
718.801	49.78431737
718.985	49.83010531
719.168	49.87478297
719.351	49.92214943
719.534	49.9769031
719.717	49.98533168
719.9	50.07415895
720.083	50.13000863
720.266	50.14850625
720.449	50.16109269
720.632	50.18602246
720.815	50.23920627
720.998	50.27520274
721.181	50.29424604
721.364	50.31034914
721.547	50.36046248
721.73	50.39929199
721.913	50.43584103
722.096	50.4677824
722.279	50.49074876
722.461	50.51549689
722.644	50.57410359
722.827	50.6120525
723.01	50.66829248
723.193	50.69907834
723.376	50.74463515
723.558	50.78813124
723.741	50.77731378
723.924	50.79666669
724.107	50.845487
724.289	50.88404523
724.472	50.90166851
724.655	50.94578423
724.837	50.99640669
725.02	51.02294317
725.203	51.07711843
725.385	51.11760544
725.568	51.14188521
725.75	51.14610793
725.933	51.16871524
726.115	51.20610116
726.298	51.23649408
726.481	51.23429368
726.663	51.2391704
726.845	51.22443872
727.028	51.25965632
727.21	51.27030957
727.393	51.30431095
727.575	51.32171983
727.758	51.37855688
727.94	51.36410631
728.122	51.39972203
728.305	51.45233968
728.487	51.45075193
728.67	51.44176342
728.852	51.47698415
729.034	51.487561
729.216	51.46993809
729.399	51.48343942
729.581	51.51355114
729.763	51.51868479
729.945	51.54008793
730.128	51.56263876
730.31	51.6025919
730.492	51.66403686
730.674	51.68048722
730.856	51.70604907
731.039	51.69992029
731.221	51.71662009
731.403	51.74164137
731.585	51.746842
731.767	51.77300541
731.949	51.80495795
732.131	51.79054816
732.313	51.78267539
732.495	51.80373174
732.677	51.80644554
732.859	51.81013517
733.041	51.83648655
733.223	51.86185196
733.405	51.89332864
733.587	51.93051391
733.769	51.93194902
733.951	51.93704508
734.132	51.96277456
734.314	51.93904477
734.496	51.97317301
734.678	51.95781711
734.86	51.99331759
735.042	51.98016466
735.223	51.99703753
735.405	51.98586033
735.587	52.00761885
735.769	51.99599529
735.95	52.02472929
736.132	52.0756544
736.314	52.07867543
736.495	52.09825176
736.677	52.11538825
736.859	52.11843017
737.04	52.13219998
737.222	52.12728691
737.403	52.11449581
737.585	52.17256634
737.767	52.17388487
737.948	52.17855243
738.13	52.21531551
738.311	52.22287666
738.493	52.23840326
738.674	52.26636834
738.856	52.30270603
739.037	52.32407931
739.219	52.34493775
739.4	52.35451346
739.581	52.38351774
739.763	52.41508948
739.944	52.40970997
740.125	52.43882929
740.307	52.44642316
740.488	52.47683187
740.669	52.50759123
740.851	52.52134423
741.032	52.53487036
741.213	52.57915441
741.395	52.56104608
741.576	52.60026726
741.757	52.61983222
741.938	52.62542632
742.119	52.61056815
742.301	52.62411462
742.482	52.6343253
742.663	52.66219182
742.844	52.67025033
743.025	52.69775141
743.206	52.69745819
743.387	52.7093244
743.568	52.67407923
743.749	52.69193145
743.93	52.69174959
744.111	52.6667667
744.292	52.68795955
744.473	52.67058303
744.654	52.67144836
744.835	52.7167294
745.016	52.7096179
745.197	52.70535583
745.378	52.71559783
745.559	52.69793856
745.74	52.6961054
745.921	52.7350233
746.102	52.75239593
746.282	52.74810631
746.463	52.74870221
746.644	52.74293511
746.825	52.73303116
747.006	52.76176406
747.186	52.74463493
747.367	52.79176908
747.548	52.8165334
747.728	52.8530957
747.909	52.89977676
748.09	52.92694207
748.27	52.95704947
748.451	52.98749957
748.632	52.98280164
748.812	52.99579015
748.993	53.01130813
749.173	53.02216452
749.354	53.02617764
749.535	53.03910685
749.715	53.04398437
749.896	53.09285164
750.076	53.13816125
750.257	53.14007252
750.437	53.16839206
750.618	53.1885278
750.798	53.20323904
750.978	53.22304318
751.159	53.23596201
751.339	53.25527349
751.52	53.2653864
751.7	53.29448069
751.88	53.26172948
752.061	53.28409812
752.241	53.30266527
752.421	53.30644017
752.601	53.32947869
752.782	53.36775147
752.962	53.37701427
753.142	53.4331176
753.322	53.46351464
753.503	53.47082769
753.683	53.42268142
753.863	53.43299877
754.043	53.44983816
754.223	53.47427053
754.403	53.48938946
754.583	53.48865264
754.764	53.53766049
754.944	53.5463592
755.124	53.52312131
755.304	53.53336322
755.484	53.54545411
755.664	53.58867468
755.844	53.59755179
756.024	53.61243704
756.204	53.61346735
756.384	53.65521653
756.564	53.64531997
756.743	53.68919477
756.923	53.6807603
757.103	53.70277704
757.283	53.70691396
757.463	53.75080927
757.643	53.71540685
757.823	53.73201432
758.002	53.78881651
758.182	53.83265376
758.362	53.86762553
758.542	53.86604367
758.721	53.89277302
758.901	53.94092865
759.081	53.95536365
759.261	53.97153805
759.44	53.99124008
759.62	54.02805539
759.8	54.05543803
759.979	54.06383022
760.159	54.03264274
760.338	54.05538485
760.518	54.01132343
760.698	54.07130251
760.877	54.08793067
761.057	54.10724872
761.236	54.11473955
761.416	54.09668209
761.595	54.13575256
761.775	54.10733877
761.954	54.1037252
762.133	54.06333418
762.313	54.04073454
762.492	54.00744546
762.672	53.98164023
762.851	53.97409738
763.03	53.96643241
763.21	53.9708398
763.389	53.92926873
763.568	53.91389667
763.748	53.90381996
763.927	53.91899977
764.106	53.89485215
764.286	53.92249141
764.465	53.88243719
764.644	53.85537851
764.823	53.86673064
765.002	53.84396513
765.182	53.86543109
765.361	53.80720908
765.54	53.79472329
765.719	53.75694518
765.898	53.80047649
766.077	53.79152311
766.256	53.82997615
766.435	53.83703434
766.614	53.81541269
766.793	53.81722836
766.972	53.81737574
767.151	53.81515154
767.33	53.81235226
767.509	53.84719313
767.688	53.8244258
767.867	53.8287352
768.046	53.82645455
768.225	53.82571204
768.404	53.8511779
768.583	53.80139019
768.762	53.81827349
768.94	53.83896398
769.119	53.86631462
769.298	53.88054982
769.477	53.89022054
769.656	53.85805006
769.834	53.88685315
770.013	53.85999941
770.192	53.86454076
770.37	53.88088044
770.549	53.90648056
770.728	53.90475218
770.906	53.94165465
771.085	53.94199873
771.264	53.92793113
771.442	53.96306775
771.621	53.97700493
771.799	53.98389898
771.978	53.98724221
772.157	53.98388929
772.335	54.0815342
772.514	54.10061127
772.692	54.0767989
772.871	54.07712353
773.049	54.07154489
773.228	54.08745155
773.406	54.12183208
773.584	54.11950524
773.763	54.17561086
773.941	54.25546557
774.119	54.29134723
774.298	54.31378769
774.476	54.31923986
774.655	54.33060668
774.833	54.36757076
775.011	54.41135084
775.189	54.45362618
775.368	54.46168825
775.546	54.48895253
775.724	54.52767153
775.902	54.55097562
776.08	54.529304
776.259	54.5449017
776.437	54.60142797
776.615	54.66959467
776.793	54.70167427
776.971	54.76946497
777.149	54.79451935
777.327	54.8633253
777.505	54.85945771
777.683	54.8564259
777.861	54.89124311
778.04	54.91811341
778.218	54.97200672
778.395	55.02137702
778.573	55.05081446
778.751	55.08132253
778.929	55.11193684
779.107	55.19059113
779.285	55.24172109
779.463	55.31964066
779.641	55.40508027
779.819	55.45787832
779.997	55.5248232
780.174	55.57845028
780.352	55.59610775
780.53	55.64882852
780.708	55.68264124
780.886	55.78204437
781.063	55.82453092
781.241	55.88360072
781.419	55.93998087
781.596	56.00479374
781.774	56.04339828
781.952	56.07148283
782.129	56.11048588
782.307	56.18369306
782.485	56.19028948
782.662	56.21751933
782.84	56.25634273
783.017	56.29757769
783.195	56.31536413
783.372	56.3472445
783.55	56.41765392
783.727	56.47969932
783.905	56.50144019
784.082	56.56275627
784.26	56.62733319
784.437	56.67733763
784.615	56.71971286
784.792	56.76761154
784.969	56.83802714
785.147	56.84274316
785.324	56.90532996
785.501	56.95624943
785.679	57.04721378
785.856	57.09056262
786.033	57.15331417
786.211	57.2981691
786.388	57.3644567
786.565	57.43259714
786.742	57.47561066
786.92	57.54167628
787.097	57.58507715
787.274	57.61321456
787.451	57.66333765
787.628	57.73735829
787.805	57.81211264
787.982	57.87928669
788.16	57.91006099
788.337	57.91769804
788.514	57.95722113
788.691	57.98826288
788.868	58.0647804
789.045	58.10640339
789.222	58.16650159
789.399	58.23262739
789.576	58.34301672
789.753	58.39510221
789.93	58.42558743
790.106	58.48633303
790.283	58.56866698
790.46	58.62001544
790.637	58.71108974
790.814	58.76083354
790.991	58.82281448
791.168	58.8206591
791.344	58.88731716
791.521	58.96431215
791.698	59.02118364
791.875	59.11931367
792.051	59.15785955
792.228	59.22537039
792.405	59.26186026
792.581	59.35523081
792.758	59.40853578
792.935	59.4691942
793.111	59.50104451
793.288	59.4856946
793.465	59.50336047
793.641	59.58496301
793.818	59.63538774
793.994	59.67323809
794.171	59.75951459
794.347	59.77054108
794.524	59.81111152
794.7	59.87921836
794.877	60.02285406
795.053	60.08877373
795.23	60.07169936
795.406	60.1056015
795.583	60.1108524
795.759	60.17734658
795.935	60.2647714
796.112	60.37138065
796.288	60.38115996
796.464	60.47385351
796.641	60.53388383
796.817	60.58420225
796.993	60.6280441
797.169	60.69790486
797.346	60.69035751
797.522	60.74193664
797.698	60.87077671
797.874	60.94481454
798.051	60.97912186
798.227	61.05434654
798.403	61.17420687
798.579	61.1570127
798.755	61.23209527
798.931	61.34794138
799.107	61.42818378
799.283	61.53355328
799.459	61.6067662
799.635	61.66382749
799.811	61.6918759
799.987	61.76310038
800.163	61.75715425
800.339	61.85777868
800.515	61.93939954
800.691	62.06840507
800.867	62.15736117
801.043	62.25961148
801.219	62.32524477
801.395	62.31766223
801.571	62.34359979
801.746	62.42117528
801.922	62.49639654
802.098	62.46089596
802.274	62.5639132
802.45	62.58102523
802.625	62.56954022
802.801	62.63677843
802.977	62.70367915
803.152	62.84382125
803.328	62.8986091
803.504	63.03889492
803.679	63.08806013
803.855	63.12658306
804.031	63.13474354
804.206	63.16680123
804.382	63.17709139
804.557	63.25055332
804.733	63.25337393
804.909	63.29592218
805.084	63.3315736
805.26	63.43388893
805.435	63.56657276
805.61	63.64289351
805.786	63.76295474
805.961	63.90484419
806.137	64.06161151
806.312	64.24132714
806.488	64.36249369
806.663	64.43918981
806.838	64.50126916
807.014	64.629892
807.189	64.69049715
807.364	64.83817055
807.54	65.08420446
807.715	65.27416715
807.89	65.48237585
808.065	65.6800389
808.241	65.74873914
808.416	65.97416065
808.591	66.12284776
808.766	66.26916451
808.941	66.35421784
809.116	66.40956219
809.291	66.50893371
809.467	66.69214817
809.642	66.73200916
809.817	66.81236745
809.992	66.89791621
810.167	66.97984086
810.342	67.14446053
810.517	67.29196537
810.692	67.38870716
810.867	67.59003239
811.042	67.82754153
811.217	67.91693575
811.392	68.04580637
811.567	68.16775315
811.741	68.29272604
811.916	68.50259708
812.091	68.51725111
812.266	68.65024127
812.441	68.74362237
812.616	68.95254058
812.79	69.09797417
812.965	69.26769836
813.14	69.29658167
813.315	69.43919365
813.489	69.47685909
813.664	69.69606319
813.839	69.81208372
814.013	69.84938217
814.188	69.83660466
814.363	69.93230213
814.537	69.89986514
814.712	69.89187763
814.887	69.88096747
815.061	69.82433857
815.236	69.75228028
815.41	69.77224416
815.585	69.8184595
815.759	69.89048221
815.934	69.97645358
816.108	70.05812596
816.283	69.96242064
816.457	69.91153462
816.631	69.94700064
816.806	69.88100653
816.98	69.89869186
817.155	70.0041831
817.329	69.92471928
817.503	70.0003614
817.678	70.13147847
817.852	70.23155111
818.026	70.20408412
818.201	70.19615076
818.375	70.20106352
818.549	70.34312882
818.723	70.43220042
818.897	70.53002651
819.072	70.51045526
819.246	70.47529838
819.42	70.52205926
819.594	70.49046206
819.768	70.47932547
819.942	70.62098948
820.116	70.7963674
820.29	70.73388976
820.465	70.92133623
820.639	71.01553377
820.813	71.02617271
820.987	71.10195193
821.161	71.06961465
821.335	71.03836997
821.509	71.02243667
821.682	71.14073651
821.856	71.29065602
822.03	71.33221379
822.204	71.28199342
822.378	71.33545221
822.552	71.33447835
822.726	71.50326744
822.9	71.54500634
823.073	71.54394462
823.247	71.62271008
823.421	71.72478024
823.595	71.81519979
823.768	71.85251346
823.942	72.09341228
824.116	72.1913292
824.289	72.18540316
824.463	72.21547006
824.637	72.2964426
824.81	72.37423855
824.984	72.47915252
825.158	72.58367297
825.331	72.50345988
825.505	72.55189165
825.678	72.59290241
825.852	72.6864887
826.025	72.7949669
826.199	72.90709569
826.372	72.93038415
826.546	73.05350893
826.719	73.19100017
826.893	73.21807009
827.066	73.10256785
827.24	73.01228332
827.413	72.96049044
827.586	72.87467228
827.76	72.79565097
827.933	72.88949018
828.106	72.99938809
828.28	73.10359055
828.453	73.08623246
828.626	72.94273814
828.799	73.04677699
828.973	73.1888735
829.146	73.19568229
829.319	73.16784233
829.492	73.20734121
829.665	73.16199985
829.839	73.26104956
830.012	73.23471102
830.185	73.23093863
830.358	73.18407395
830.531	73.15612124
830.704	73.20922934
830.877	73.29882965
831.05	73.42350188
831.223	73.40913588
831.396	73.56638137
831.569	73.6403117
831.742	73.62995798
831.915	73.50513006
832.088	73.5521216
832.261	73.80006088
832.434	73.75426841
832.607	73.77763293
832.779	73.85821136
832.952	73.86107996
833.125	73.96756895
833.298	73.98629463
833.471	73.88895067
833.643	74.12054589
833.816	74.06783287
833.989	74.1144678
834.162	74.18556971
834.334	74.28162147
834.507	74.37168958
834.68	74.36501095
834.852	74.32248343
835.025	74.33047864
835.198	74.23162121
835.37	74.39939775
835.543	74.54589368
835.715	74.71308496
835.888	74.74028595
836.061	74.72609786
836.233	74.87561156
836.406	74.89400743
836.578	75.06092344
836.751	75.10760043
836.923	75.27028598
837.095	75.3346002
837.268	75.28979589
837.44	75.48621276
837.613	75.68612377
837.785	75.91081183
837.957	75.94803739
838.13	75.95843922
838.302	76.16544397
838.474	76.49146558
838.647	76.59559943
838.819	76.78451066
838.991	76.75183368
839.163	76.78852549
839.336	76.94846381
839.508	76.96092589
839.68	77.16534589
839.852	77.18302518
840.024	77.29665217
840.196	77.40366148
840.368	77.42388172
840.541	77.53223284
840.713	77.79410718
840.885	77.84786069
841.057	77.93426067
841.229	77.95259011
841.401	77.99137498
841.573	78.32695686
841.745	78.54297111
841.917	78.54980866
842.089	78.60121375
842.261	78.64035004
842.432	78.93719134
842.604	79.10161354
842.776	79.24252196
842.948	79.20321061
843.12	79.42442427
843.292	79.54618193
843.464	79.54728796
843.635	79.6998553
843.807	79.94705816
843.979	80.18000083
844.151	80.21968558
844.322	80.24954657
844.494	80.38233822
844.666	80.61538875
844.837	80.84175908
845.009	81.08668046
845.181	81.27111697
845.352	81.50673824
845.524	81.77596215
845.695	81.80490887
845.867	81.76858527
846.039	81.78605744
846.21	81.88318139
846.382	82.23387554
846.553	82.35092509
846.725	82.64614218
846.896	82.93646936
847.068	83.16184411
847.239	83.12165941
847.41	83.29833504
847.582	83.36535433
847.753	83.52235225
847.925	83.83380156
848.096	83.97609803
848.267	84.03794897
848.439	84.10270961
848.61	84.14553176
848.781	84.05442276
848.952	84.13046934
849.124	84.31856866
849.295	84.59013865
849.466	84.8207895
849.637	84.76726686
849.808	85.12523387
849.98	85.31422173
850.151	85.35623603
850.322	85.42891002
850.493	85.31713947
850.664	85.35936953
850.835	85.38727942
851.006	85.1178768
851.177	85.01051719
851.348	85.10920749
851.519	85.08309732
851.69	85.21577736
851.861	85.31016051
852.032	85.49605758
852.203	85.53799101
852.374	85.79344433
852.545	85.73623531
852.716	85.23202467
852.887	85.23220306
853.057	85.50321313
853.228	85.7300358
853.399	85.85164623
853.57	85.51374696
853.741	85.77193449
853.911	85.4295227
854.082	85.42733282
854.253	85.82111624
854.424	86.15956777
854.594	86.57779401
854.765	87.18598935
854.936	87.40779637
855.106	87.17144191
855.277	87.3963648
855.447	87.73393796
855.618	87.85009643
855.789	88.24938501
855.959	88.19956936
856.13	88.23172117
856.3	88.59216472
856.471	88.77857092
856.641	88.64827277
856.812	88.66065615
856.982	88.59068047
857.153	89.11536687
857.323	89.33104104
857.493	89.60515143
857.664	89.97705068
857.834	90.17284545
858.004	90.08875163
858.175	90.10007113
858.345	89.81658597
858.515	89.76932656
858.686	90.24625071
858.856	89.99021022
859.026	89.92350125
859.196	90.46645968
859.367	90.74099797
859.537	91.22390481
859.707	91.74882526
859.877	92.13483771
860.047	92.65387124
860.217	93.38646278
860.387	93.97785564
860.558	94.50752315
860.728	94.47812274
860.898	94.32993923
861.068	94.75409255
861.238	95.01889365
861.408	95.17130775
861.578	95.5961144
861.748	95.93635921
861.918	96.73294755
862.088	97.01106508
862.257	97.2844709
862.427	97.99109957
862.597	98.1001191
862.767	97.90307371
862.937	97.698726
863.107	97.96244892
863.277	98.28619895
863.446	98.61096489
863.616	98.40154634
863.786	98.56434195
863.956	98.84873746
864.125	98.87622859
864.295	99.19494555
864.465	99.98397213
864.634	100.74868962
864.804	100.74515117
864.974	100.7662532
865.143	101.81970558
865.313	101.99211074
865.482	101.41980216
865.652	101.94434508
865.822	102.46176267
865.991	102.43019883
866.161	103.18174847
866.33	103.43461133
866.5	103.97684547
866.669	104.74692616
866.838	105.52166597
867.008	105.91004862
867.177	106.42479648
867.347	106.23960205
867.516	106.35121542
867.685	106.7244991
867.855	106.8093617
868.024	107.51117607
868.193	107.78542215
868.363	108.13239388
868.532	108.82805046
868.701	108.52849059
868.87	109.15763121
869.04	110.29884847
869.209	111.08123591
869.378	111.36261808
869.547	112.30420602
869.716	112.7276024
869.885	113.28496396
870.055	113.63908179
870.224	113.61107881
870.393	113.12105487
870.562	113.72915525
870.731	114.53258853
870.9	116.02666295
871.069	116.99386627
871.238	117.47936754
871.407	118.60424247
871.576	118.66441941
871.745	118.7028451
871.914	120.59785198
872.083	121.03741051
872.251	121.70304233
872.42	121.81468469
872.589	122.10421246
872.758	121.37857304
872.927	122.24910272
873.096	122.56514992
873.264	123.41837913
873.433	124.25291375
873.602	124.57185318
873.771	125.26194218
873.939	125.02866835
874.108	125.18656716
874.277	125.76464553
874.445	126.5885751
874.614	126.40092075
874.783	126.82662075
874.951	126.77358491
875.12	127.93902193
875.288	129.14226794
875.457	128.38521797
875.625	129.33537149
875.794	129.60034279
875.962	130.53626848
876.131	131.57998944
876.299	132.89529858
876.468	133.39074536
876.636	133.88790869
876.805	133.93744071
876.973	134.03674139
877.141	134.72174852
877.31	133.8410804
877.478	133.93219651
877.647	135.35411855
877.815	136.00292695
877.983	136.41696477
878.151	137.319616
878.32	138.09560359
878.488	139.23416199
878.656	139.54065701
878.824	139.35068614
878.992	141.71837022
879.161	141.23103138
879.329	141.0923635
879.497	143.11584685
879.665	142.95582896
879.833	142.63572386
880.001	144.08377497
880.169	145.01231106
880.337	145.50455235
880.505	146.10237596
880.673	147.64218094
880.841	150.14991691
881.009	153.51955102
881.177	154.07302336
881.345	155.83764918
881.513	155.76764882
881.681	156.75577759
881.849	158.03170051
882.017	156.37118579
882.185	156.04002168
882.352	157.98649502
882.52	156.88038921
882.688	160.82627464
882.856	163.03226605
883.024	162.26731199
883.191	161.63870704
883.359	164.75565496
883.527	163.36004363
883.694	163.75221912
883.862	165.76169888
884.03	166.92837583
884.197	167.07524166
884.365	168.14044499
884.533	168.64948177
884.7	168.65093579
884.868	168.36593426
885.035	168.51089807
885.203	169.3193036
885.37	169.10553715
885.538	172.89338801
885.705	175.11314715
885.873	173.75970789
886.04	174.3288383
886.208	171.02103077
886.375	171.01015723
886.542	171.87877415
886.71	176.00335852
886.877	175.15005457
