Data from printpreto_Reflection_00001.txt Node
Date: Thu Apr 11 13:56:06 AEST 2024
User: uqkchene_local
Spectrometer: USB4E02642
Trigger mode: 4
Integration Time (sec): 2.541000E-2
Scans to average: 101
Electric dark correction enabled: true
Nonlinearity correction enabled: false
Boxcar width: 10
XAxis mode: Wavelengths
Number of Pixels in Spectrum: 3648
>>>>>Begin Spectral Data<<<<<
179.217	87.24558616
179.432	100
179.647	110.69165284
179.862	101.93594524
180.077	106.34566063
180.293	95.08158235
180.508	102.2616738
180.723	90.81338088
180.938	60.63279003
181.153	42.04997686
181.368	33.07329883
181.583	22.34977419
181.798	12.22304357
182.013	6.89266532
182.228	4.33154009
182.443	0.12295586
182.658	2.49298626
182.873	1.84692908
183.088	4.13214513
183.303	3.14990207
183.518	2.24462998
183.733	1.41363681
183.948	-0.47475276
184.162	-0.04131763
184.377	0.27276213
184.592	-0.08200764
184.807	0.21995499
185.022	-0.44131622
185.237	0.98308383
185.452	0.14211059
185.667	-0.29382513
185.882	-1.0287136
186.096	0.58601674
186.311	1.11199524
186.526	0.66537873
186.741	0.43935622
186.956	-0.10375482
187.17	-1.57048511
187.385	-1.60667561
187.6	-3.44324422
187.815	-3.39477374
188.03	-4.65631588
188.244	-3.43888824
188.459	-2.76541851
188.674	-3.18799957
188.889	-3.85672649
189.103	-4.24316648
189.318	-4.04185506
189.533	-4.58853533
189.747	-5.85723315
189.962	-4.97302393
190.177	-5.22934225
190.391	-4.39776696
190.606	-6.26095046
190.821	-6.25253672
191.035	-7.38254686
191.25	-8.04299539
191.465	-8.73902405
191.679	-7.63711154
191.894	-8.01091232
192.109	-7.79872668
192.323	-7.39845434
192.538	-7.12393288
192.752	-7.81682049
192.967	-9.05382383
193.181	-10.16699741
193.396	-9.63007609
193.611	-9.21697859
193.825	-8.76078748
194.04	-8.60000919
194.254	-7.15550543
194.469	-8.4698628
194.683	-8.84588026
194.898	-8.95279575
195.112	-9.7653218
195.327	-9.92312777
195.541	-8.25715098
195.756	-8.16129885
195.97	-6.39150666
196.184	-5.61291678
196.399	-4.68550715
196.613	-3.78889412
196.828	-3.72174399
197.042	-2.14144459
197.257	-2.0951685
197.471	-1.62491605
197.685	-1.28117021
197.9	-0.51297753
198.114	0.16014403
198.328	-1.11092877
198.543	-1.61445069
198.757	-3.45893087
198.971	-2.27221292
199.186	-0.32547671
199.4	-1.36053081
199.614	-0.18446175
199.829	-0.98209491
200.043	-1.24254834
200.257	-2.33880152
200.471	-3.61494939
200.686	-3.90897132
200.9	-4.58643456
201.114	-4.11087102
201.328	-4.35117765
201.543	-6.18035909
201.757	-6.24560739
201.971	-7.03469417
202.185	-6.17895628
202.399	-8.05997935
202.614	-9.39091893
202.828	-7.8338333
203.042	-5.86440388
203.256	-5.08123519
203.47	-5.52193002
203.684	-7.68574915
203.899	-6.98999167
204.113	-7.12394929
204.327	-6.04404915
204.541	-6.53984755
204.755	-4.84883316
204.969	-4.21494297
205.183	-3.75356469
205.397	-3.35179004
205.611	-3.3916618
205.825	-3.11472286
206.039	-3.22494084
206.253	-3.1205978
206.467	-3.21710344
206.681	-3.60040296
206.895	-2.72875419
207.109	-1.59662944
207.323	-1.67519286
207.537	-2.30440492
207.751	-1.23226413
207.965	-1.29790068
208.179	-0.22780431
208.393	-0.23878529
208.607	-1.09297806
208.821	-0.71250345
209.035	0.02881992
209.249	0.2289146
209.463	-0.07622896
209.677	-0.25243535
209.891	-0.58837428
210.104	-1.56851375
210.318	-1.73153333
210.532	-1.47052699
210.746	-0.73381857
210.96	0.04828871
211.174	-0.70215373
211.387	-0.3086858
211.601	-0.29852529
211.815	-0.8540577
212.029	-2.91252592
212.243	-4.13580859
212.456	-4.19053404
212.67	-4.41407263
212.884	-4.5170952
213.098	-3.92801612
213.311	-4.22204408
213.525	-3.76101511
213.739	-3.59040616
213.953	-3.17130572
214.166	-3.38650169
214.38	-3.7591643
214.594	-2.98769204
214.807	-2.94877304
215.021	-2.96262598
215.235	-3.71940725
215.448	-4.21653169
215.662	-4.25193238
215.876	-4.80765117
216.089	-4.56990649
216.303	-4.65679435
216.516	-3.12445445
216.73	-2.23215746
216.944	-1.75344859
217.157	-2.03908004
217.371	-1.54148152
217.584	-1.43688118
217.798	-2.02906498
218.011	-4.09828033
218.225	-5.30391181
218.439	-5.65322789
218.652	-5.43440978
218.866	-5.0109824
219.079	-5.36273001
219.293	-5.9153296
219.506	-4.06849334
219.719	-3.71017698
219.933	-3.77846767
220.146	-3.00568232
220.36	-3.08063208
220.573	-2.50668767
220.787	-1.29018337
221	-0.54335985
221.214	-0.58065638
221.427	-2.29858066
221.64	-2.37194366
221.854	-3.29795179
222.067	-3.65869605
222.28	-2.21726716
222.494	-1.78856452
222.707	-0.34491254
222.92	0.16713366
223.134	-0.58124786
223.347	-0.98437341
223.56	-0.21072772
223.774	0.92967015
223.987	0.85309912
224.2	0.77718512
224.414	0.75262603
224.627	1.32543033
224.84	1.10283957
225.053	1.023931
225.267	0.25838548
225.48	-1.65163907
225.693	-1.53371934
225.906	0.92050319
226.119	1.00200488
226.333	1.64116673
226.546	1.91352876
226.759	0.12827715
226.972	1.31356694
227.185	0.33621795
227.398	-0.58369981
227.612	-0.48454776
227.825	-0.48059497
228.038	-1.76759115
228.251	-2.7667966
228.464	-3.49314848
228.677	-3.07944831
228.89	-1.1072683
229.103	-1.75834674
229.316	-0.90817038
229.529	-1.47235834
229.743	-1.65238485
229.956	-1.57715704
230.169	-1.93695251
230.382	-3.31891566
230.595	-3.36715433
230.808	-3.62336691
231.021	-4.20721403
231.234	-1.77722054
231.447	-1.43138571
231.66	-0.61260097
231.872	-0.3770931
232.085	0.21156951
232.298	0.09410465
232.511	0.93882978
232.724	1.39579211
232.937	0.42712823
233.15	-0.01983366
233.363	-1.88765294
233.576	-2.00385457
233.789	-2.87513345
234.002	-2.84595516
234.214	-2.93977941
234.427	-1.74306088
234.64	-1.68837664
234.853	-1.08508805
235.066	-0.95127033
235.279	-1.37877703
235.491	-0.62180323
235.704	-2.5779847
235.917	-3.92265613
236.13	-4.09819509
236.342	-3.84799996
236.555	-4.10859655
236.768	-3.54616576
236.981	-4.1866865
237.193	-4.85463362
237.406	-3.58531222
237.619	-2.51858168
237.832	-1.75720589
238.044	-1.22711108
238.257	-1.00061943
238.47	-1.39296093
238.682	-0.95187913
238.895	-2.59578928
239.108	-1.50302865
239.32	-2.49318504
239.533	-2.06924367
239.746	-2.01915522
239.958	-2.08307743
240.171	-1.66422586
240.383	-1.0843756
240.596	-1.92104985
240.808	-1.45939967
241.021	-1.76775888
241.234	-2.6056335
241.446	-2.13517099
241.659	-2.064273
241.871	-3.29388106
242.084	-4.6492394
242.296	-5.45964894
242.509	-6.2872176
242.721	-6.07331823
242.934	-4.88161042
243.146	-5.54636804
243.359	-4.43463721
243.571	-5.18108761
243.784	-5.37546075
243.996	-5.46631112
244.208	-5.46367484
244.421	-6.01604916
244.633	-4.43215451
244.846	-5.13961107
245.058	-4.31044474
245.27	-4.75661105
245.483	-4.65479444
245.695	-4.37047942
245.907	-3.69880098
246.12	-3.21949931
246.332	-2.27198797
246.544	-1.49666872
246.757	-1.7103834
246.969	-0.77737327
247.181	-0.70725569
247.394	-1.44338938
247.606	-1.04904339
247.818	-1.23678764
248.03	-1.52037225
248.243	-0.8216643
248.455	-2.19933613
248.667	-1.72291026
248.879	-1.57154369
249.092	-3.87275813
249.304	-3.6505749
249.516	-4.55743524
249.728	-4.12495834
249.94	-3.97609941
250.153	-3.29352732
250.365	-4.27572133
250.577	-3.25174981
250.789	-3.18172432
251.001	-3.3422827
251.213	-3.09165583
251.425	-2.3074545
251.637	-2.87094741
251.85	-2.66584282
252.062	-2.13205091
252.274	-1.90063368
252.486	-1.89098688
252.698	-2.34213805
252.91	-1.97214436
253.122	-1.96307195
253.334	-1.57530155
253.546	-0.76016814
253.758	-0.89808159
253.97	0.51808801
254.182	0.85672969
254.394	-0.26008007
254.606	0.00233321
254.818	0.5156147
255.03	-1.00015442
255.242	-1.6894613
255.454	-1.68533316
255.666	-1.04752362
255.877	-2.48597235
256.089	-3.47571273
256.301	-3.88784535
256.513	-4.80128619
256.725	-4.31517809
256.937	-4.2636242
257.149	-4.06868189
257.361	-2.87647303
257.572	-2.03414545
257.784	-1.55169574
257.996	-2.26984108
258.208	-2.05753553
258.42	-3.19142521
258.631	-4.01590346
258.843	-1.91220282
259.055	-2.64676908
259.267	-3.0004952
259.479	-1.86246136
259.69	-1.69444215
259.902	-1.82457674
260.114	-2.37990235
260.325	-2.37883236
260.537	-0.70248492
260.749	-0.49578811
260.961	-0.45971366
261.172	-1.07207685
261.384	-1.03844257
261.596	-0.72797419
261.807	-0.75502421
262.019	-1.38442427
262.23	-2.35691658
262.442	-2.06745921
262.654	-2.63112541
262.865	-2.38950546
263.077	-1.98229415
263.288	-2.52471947
263.5	-2.79192562
263.712	-3.34115045
263.923	-3.86545096
264.135	-3.7974441
264.346	-4.06764851
264.558	-4.53552267
264.769	-5.72954433
264.981	-5.85898215
265.192	-6.41842816
265.404	-6.16436008
265.615	-6.44813841
265.827	-6.66199185
266.038	-6.00434599
266.25	-6.39771059
266.461	-6.62460685
266.673	-5.77398914
266.884	-5.40629181
267.095	-4.15634412
267.307	-4.24460668
267.518	-4.91264576
267.73	-4.73157482
267.941	-4.70140001
268.152	-4.36349295
268.364	-4.13203242
268.575	-3.77409517
268.786	-3.13981189
268.998	-2.78629993
269.209	-2.051199
269.42	-1.86645905
269.632	-1.31734646
269.843	-0.39349795
270.054	0.55856902
270.265	0.18581647
270.477	-0.27644401
270.688	-0.38284813
270.899	-0.14965099
271.11	0.01700466
271.322	-0.26304968
271.533	-0.09931065
271.744	-0.60909541
271.955	-0.12441188
272.166	-0.76902724
272.378	-1.51078415
272.589	-0.98274168
272.8	-0.68194095
273.011	-0.77882639
273.222	-0.62237042
273.433	-0.59165295
273.644	0.24924192
273.856	0.02371844
274.067	-1.07100452
274.278	-1.61112466
274.489	-2.16948361
274.7	-2.0970639
274.911	-2.13866325
275.122	-1.93725125
275.333	-2.51870627
275.544	-3.06509924
275.755	-3.34896089
275.966	-3.63213573
276.177	-4.14016632
276.388	-4.76211966
276.599	-4.28524368
276.81	-2.86023347
277.021	-2.71219268
277.232	-2.99213601
277.443	-2.50092807
277.654	-2.83926547
277.865	-2.85779751
278.076	-3.90184536
278.287	-3.6167587
278.497	-2.06313034
278.708	-1.75781954
278.919	-1.65869739
279.13	-1.1361372
279.341	-1.1669129
279.552	-0.36002262
279.763	-0.26091332
279.973	-0.38879432
280.184	0.38704748
280.395	-0.09496348
280.606	0.58494349
280.817	0.86023254
281.027	0.46638625
281.238	-0.75088991
281.449	-1.21449188
281.66	-0.94169651
281.87	-1.12296073
282.081	-1.5138071
282.292	-0.89438338
282.503	-0.12776003
282.713	0.16104699
282.924	-0.27864188
283.135	-0.15049094
283.345	0.19262226
283.556	0.13050828
283.767	0.43984266
283.977	0.34246885
284.188	0.50455695
284.399	0.93806216
284.609	0.39783209
284.82	1.33533584
285.03	1.33489399
285.241	1.79977569
285.451	2.0902061
285.662	2.56005898
285.873	2.70744766
286.083	2.72367151
286.294	2.21086441
286.504	2.71099991
286.715	2.51059863
286.925	2.99519287
287.136	2.76738484
287.346	2.014345
287.557	1.48082144
287.767	1.22697338
287.978	1.14926388
288.188	0.84864084
288.399	0.48259072
288.609	1.46893165
288.819	0.82234898
289.03	1.22197909
289.24	1.1216799
289.451	1.35442695
289.661	1.35461611
289.871	1.602422
290.082	2.30772374
290.292	2.79566887
290.502	2.69699053
290.713	3.3759072
290.923	3.05076292
291.133	3.21712182
291.344	3.29069512
291.554	3.17451071
291.764	4.12230407
291.974	4.70789803
292.185	5.25368096
292.395	5.18638272
292.605	5.29828855
292.815	5.29896932
293.026	4.90425898
293.236	5.47958996
293.446	5.61228062
293.656	5.77927104
293.866	5.89928653
294.077	5.94962919
294.287	6.0646835
294.497	6.28553352
294.707	6.43309794
294.917	6.65027986
295.127	6.72956843
295.337	7.05642325
295.548	7.13128194
295.758	7.28873076
295.968	7.62408744
296.178	7.71071316
296.388	7.87008923
296.598	7.95467111
296.808	8.11793212
297.018	8.21299855
297.228	8.57037432
297.438	8.79043678
297.648	9.0078277
297.858	9.22323213
298.068	9.24518381
298.278	9.38214606
298.488	9.58248666
298.698	9.70681338
298.908	9.76684432
299.118	9.77905343
299.328	9.87115222
299.538	9.95092363
299.748	9.99432559
299.957	10.05324148
300.167	10.0797916
300.377	10.07855139
300.587	10.11544738
300.797	10.1370418
301.007	10.16605441
301.217	10.25996221
301.426	10.34070549
301.636	10.30191428
301.846	10.28261179
302.056	10.2516379
302.266	10.26163853
302.475	10.31209837
302.685	10.31117844
302.895	10.3316042
303.105	10.32510549
303.314	10.31621273
303.524	10.32925328
303.734	10.33418122
303.944	10.29325209
304.153	10.27881419
304.363	10.295786
304.573	10.2726977
304.782	10.30760758
304.992	10.30517557
305.202	10.30575294
305.411	10.30260795
305.621	10.30717649
305.831	10.30657972
306.04	10.33036133
306.25	10.35892944
306.459	10.36086891
306.669	10.36814744
306.878	10.37880379
307.088	10.39144815
307.298	10.37712119
307.507	10.36999858
307.717	10.36753541
307.926	10.36737751
308.136	10.37070751
308.345	10.39952069
308.555	10.41527175
308.764	10.41015755
308.974	10.42378259
309.183	10.41329733
309.392	10.41617189
309.602	10.41137724
309.811	10.41459904
310.021	10.36805554
310.23	10.36964336
310.44	10.36586546
310.649	10.35813849
310.858	10.35811168
311.068	10.3448847
311.277	10.32693687
311.486	10.32716939
311.696	10.32934043
311.905	10.33729687
312.114	10.34434104
312.324	10.34166844
312.533	10.33690339
312.742	10.32883466
312.952	10.32593627
313.161	10.32118257
313.37	10.31566778
313.579	10.31193309
313.789	10.30452813
313.998	10.30334512
314.207	10.30405988
314.416	10.32076053
314.625	10.31066712
314.835	10.29879654
315.044	10.28473841
315.253	10.28505043
315.462	10.26968609
315.671	10.27321949
315.88	10.26935698
316.09	10.25844641
316.299	10.24419857
316.508	10.22969122
316.717	10.21893174
316.926	10.20686166
317.135	10.19381459
317.344	10.18085992
317.553	10.17301018
317.762	10.17123639
317.971	10.16637296
318.18	10.15777005
318.389	10.14798687
318.598	10.13157669
318.807	10.12832789
319.016	10.12079559
319.225	10.11051164
319.434	10.1058743
319.643	10.09378362
319.852	10.09942781
320.061	10.08514703
320.27	10.06692641
320.479	10.05632591
320.688	10.04851884
320.897	10.03668548
321.105	10.03188934
321.314	10.026608
321.523	10.0199169
321.732	10.01370478
321.941	10.01678265
322.15	10.00105815
322.359	9.98845813
322.567	9.98265044
322.776	9.97654432
322.985	9.96852567
323.194	9.95871456
323.403	9.94934612
323.611	9.94547121
323.82	9.93863997
324.029	9.93209285
324.237	9.92423653
324.446	9.91529719
324.655	9.91614069
324.864	9.91054265
325.072	9.9051627
325.281	9.90244757
325.49	9.8968905
325.698	9.8915713
325.907	9.88704562
326.116	9.88176816
326.324	9.86348294
326.533	9.86204851
326.741	9.85436329
326.95	9.85293885
327.159	9.84923243
327.367	9.84480692
327.576	9.84296959
327.784	9.84309772
327.993	9.83281167
328.201	9.82905744
328.41	9.81984058
328.618	9.81428565
328.827	9.81331584
329.035	9.80525679
329.244	9.80488727
329.452	9.79795132
329.661	9.79637435
329.869	9.79189968
330.078	9.78583896
330.286	9.78367281
330.495	9.78212817
330.703	9.78293432
330.911	9.77635024
331.12	9.77018936
331.328	9.76326233
331.537	9.75292402
331.745	9.75023924
331.953	9.74358604
332.162	9.73317246
332.37	9.735253
332.578	9.73191444
332.787	9.7279846
332.995	9.720741
333.203	9.71432378
333.411	9.70154501
333.62	9.69317971
333.828	9.69076153
334.036	9.68174908
334.244	9.67403668
334.453	9.66888086
334.661	9.66023194
334.869	9.64877751
335.077	9.6454768
335.285	9.64239925
335.494	9.64365516
335.702	9.64202727
335.91	9.63939602
336.118	9.6301075
336.326	9.62863316
336.534	9.62600345
336.742	9.61549224
336.951	9.61075305
337.159	9.60852133
337.367	9.6056033
337.575	9.60221977
337.783	9.60161604
337.991	9.59699479
338.199	9.59302196
338.407	9.59317309
338.615	9.59256328
338.823	9.5865265
339.031	9.58204882
339.239	9.57908137
339.447	9.57729169
339.655	9.57298689
339.863	9.56819841
340.071	9.55862105
340.279	9.55479636
340.487	9.55543276
340.695	9.54993452
340.903	9.54240065
341.11	9.53923275
341.318	9.52894605
341.526	9.52228313
341.734	9.5177086
341.942	9.5145115
342.15	9.5169099
342.358	9.51296933
342.565	9.50696173
342.773	9.49855056
342.981	9.49623351
343.189	9.49663857
343.397	9.49199696
343.604	9.49523664
343.812	9.49014727
344.02	9.4832454
344.228	9.48396022
344.435	9.480445
344.643	9.47470936
344.851	9.46772576
345.058	9.45863361
345.266	9.45706184
345.474	9.45650877
345.681	9.45677743
345.889	9.45176623
346.097	9.44493706
346.304	9.43474386
346.512	9.42633713
346.72	9.42228377
346.927	9.41881856
347.135	9.41524608
347.342	9.40450805
347.55	9.39818129
347.758	9.39740432
347.965	9.38731464
348.173	9.38164142
348.38	9.38434944
348.588	9.37592471
348.795	9.37197206
349.003	9.36629977
349.21	9.36342231
349.418	9.36065928
349.625	9.35268615
349.833	9.3489861
350.04	9.34521014
350.247	9.34739043
350.455	9.34475663
350.662	9.34506764
350.87	9.34399316
351.077	9.34167126
351.284	9.33885833
351.492	9.33633556
351.699	9.33397216
351.906	9.33041802
352.114	9.32387932
352.321	9.32020264
352.528	9.30756301
352.736	9.29943498
352.943	9.29726317
353.15	9.29438908
353.358	9.29576927
353.565	9.29349528
353.772	9.29001824
353.979	9.29229271
354.187	9.28596874
354.394	9.28067495
354.601	9.27523078
354.808	9.27007351
355.015	9.26485622
355.223	9.25764139
355.43	9.2505757
355.637	9.24842441
355.844	9.24345591
356.051	9.24228978
356.258	9.23590174
356.465	9.2367967
356.673	9.23462389
356.88	9.2358034
357.087	9.23561603
357.294	9.23000656
357.501	9.2241624
357.708	9.21756748
357.915	9.21404152
358.122	9.21236415
358.329	9.20526157
358.536	9.19841905
358.743	9.1949526
358.95	9.19204401
359.157	9.19317689
359.364	9.18749983
359.571	9.182043
359.778	9.18068547
359.985	9.17420631
360.192	9.17143265
360.399	9.1677256
360.606	9.16710521
360.812	9.16112869
361.019	9.16025933
361.226	9.16015408
361.433	9.15438295
361.64	9.1534006
361.847	9.14979036
362.054	9.14636954
362.26	9.1404277
362.467	9.13566106
362.674	9.13362554
362.881	9.13318526
363.088	9.12762547
363.294	9.12214282
363.501	9.11360455
363.708	9.11088641
363.915	9.10804443
364.121	9.10179711
364.328	9.0989628
364.535	9.09576425
364.741	9.09603361
364.948	9.08766788
365.155	9.08475955
365.361	9.07627002
365.568	9.07036762
365.775	9.06402554
365.981	9.05974497
366.188	9.05481394
366.395	9.05719036
366.601	9.05390065
366.808	9.05223202
367.014	9.04978897
367.221	9.04562933
367.427	9.04500239
367.634	9.04232366
367.84	9.04018079
368.047	9.03944337
368.254	9.042029
368.46	9.04062035
368.667	9.03785214
368.873	9.03635158
369.079	9.02705482
369.286	9.02520887
369.492	9.01914796
369.699	9.01514188
369.905	9.0123541
370.112	9.01383277
370.318	9.00570572
370.524	9.00608592
370.731	8.99917971
370.937	8.99725457
371.144	8.99461247
371.35	8.99002991
371.556	8.98900615
371.763	8.98571236
371.969	8.98337982
372.175	8.97948613
372.381	8.97310106
372.588	8.96683957
372.794	8.96512366
373	8.9643525
373.206	8.96009156
373.413	8.95869033
373.619	8.95945315
373.825	8.95783924
374.031	8.95310524
374.238	8.94841591
374.444	8.94139143
374.65	8.94117822
374.856	8.93776193
375.062	8.93412266
375.268	8.93156263
375.475	8.92693966
375.681	8.92620538
375.887	8.92318535
376.093	8.92152357
376.299	8.91195744
376.505	8.90836508
376.711	8.9120162
376.917	8.91140042
377.123	8.90810402
377.329	8.9057153
377.535	8.90283039
377.741	8.90320183
377.947	8.89827151
378.153	8.89530059
378.359	8.89726161
378.565	8.89702901
378.771	8.89880705
378.977	8.89739145
379.183	8.89493511
379.389	8.89003285
379.595	8.8867202
379.801	8.88557548
380.007	8.88091123
380.213	8.87817897
380.418	8.87206898
380.624	8.87723863
380.83	8.87723309
381.036	8.87473825
381.242	8.86509475
381.448	8.86336348
381.653	8.85377145
381.859	8.85236482
382.065	8.84887988
382.271	8.84683612
382.476	8.84517782
382.682	8.83924414
382.888	8.83741402
383.094	8.83064356
383.299	8.82664652
383.505	8.8245708
383.711	8.82537064
383.916	8.82335578
384.122	8.81978399
384.328	8.81575289
384.533	8.8137676
384.739	8.81229998
384.945	8.80638157
385.15	8.80329963
385.356	8.79529075
385.562	8.7964262
385.767	8.79194099
385.973	8.79360619
386.178	8.78816818
386.384	8.77661225
386.589	8.77262882
386.795	8.77040731
387	8.77162448
387.206	8.7685293
387.411	8.76673185
387.617	8.76538587
387.822	8.76282408
388.028	8.76143319
388.233	8.75519856
388.439	8.7510771
388.644	8.74793624
388.85	8.73930845
389.055	8.73803774
389.26	8.73974184
389.466	8.73665877
389.671	8.7343547
389.877	8.73076781
390.082	8.7263002
390.287	8.72624879
390.493	8.72496373
390.698	8.7289237
390.903	8.72832097
391.109	8.7277645
391.314	8.72616342
391.519	8.72344999
391.724	8.72206297
391.93	8.71997193
392.135	8.7141159
392.34	8.71127301
392.545	8.70828146
392.751	8.70593668
392.956	8.7051311
393.161	8.70090843
393.366	8.69662191
393.571	8.69071038
393.776	8.68849669
393.982	8.6844416
394.187	8.67770475
394.392	8.67642653
394.597	8.66769405
394.802	8.66358639
395.007	8.66016563
395.212	8.65813603
395.417	8.65234339
395.622	8.64876162
395.827	8.6462559
396.032	8.64250386
396.237	8.63665826
396.442	8.63684375
396.647	8.63496507
396.852	8.63766809
397.057	8.63493426
397.262	8.63079576
397.467	8.63398696
397.672	8.63199687
397.877	8.63081886
398.082	8.62778533
398.287	8.62667942
398.492	8.6277805
398.697	8.62316419
398.902	8.62337327
399.107	8.62100707
399.311	8.61887382
399.516	8.61607749
399.721	8.61293615
399.926	8.61248967
400.131	8.61171088
400.336	8.60923843
400.54	8.60596866
400.745	8.60349859
400.95	8.59675621
401.155	8.59447828
401.359	8.59163089
401.564	8.59042087
401.769	8.58695778
401.974	8.58673923
402.178	8.58671305
402.383	8.58637922
402.588	8.58280679
402.792	8.57875956
402.997	8.57786572
403.202	8.57479508
403.406	8.57487782
403.611	8.57418575
403.815	8.57122683
404.02	8.57130558
404.225	8.56657565
404.429	8.56160971
404.634	8.55857967
404.838	8.56001676
405.043	8.55966659
405.247	8.56082295
405.452	8.55502035
405.656	8.55381151
405.861	8.55081156
406.065	8.54765371
406.27	8.54454224
406.474	8.53928477
406.679	8.53606547
406.883	8.53194929
407.088	8.53106533
407.292	8.52832616
407.497	8.52557975
407.701	8.52189538
407.905	8.51889664
408.11	8.5170331
408.314	8.51319544
408.518	8.5107609
408.723	8.50708262
408.927	8.50653325
409.131	8.50371393
409.336	8.49791316
409.54	8.49239182
409.744	8.4907644
409.949	8.48901661
410.153	8.48972664
410.357	8.48739147
410.561	8.48414288
410.766	8.48006961
410.97	8.47673831
411.174	8.47550945
411.378	8.47468522
411.582	8.47533746
411.787	8.47457622
411.991	8.47341285
412.195	8.47060907
412.399	8.46961722
412.603	8.46917244
412.807	8.46574212
413.011	8.46503316
413.215	8.46148933
413.419	8.45876249
413.624	8.45710191
413.828	8.4575772
414.032	8.4572157
414.236	8.45410854
414.44	8.45013974
414.644	8.44944754
414.848	8.44644157
415.052	8.44383406
415.256	8.44091021
415.46	8.44159781
415.664	8.43895555
415.868	8.43352727
416.072	8.43364626
416.275	8.42948348
416.479	8.42980423
416.683	8.4263046
416.887	8.42395738
417.091	8.42751734
417.295	8.42687631
417.499	8.42640546
417.703	8.42293852
417.906	8.41993981
418.11	8.41867689
418.314	8.41462039
418.518	8.41554932
418.722	8.41243257
418.925	8.40856946
419.129	8.40845314
419.333	8.4084956
419.537	8.40859079
419.74	8.40712179
419.944	8.4054431
420.148	8.40440233
420.352	8.39988725
420.555	8.40124045
420.759	8.39660982
420.963	8.39399518
421.166	8.39051774
421.37	8.38488608
421.573	8.38485762
421.777	8.38062218
421.981	8.38115087
422.184	8.38063011
422.388	8.37664575
422.591	8.37721177
422.795	8.37410344
422.999	8.37338144
423.202	8.37220457
423.406	8.36883954
423.609	8.36632357
423.813	8.36427827
424.016	8.36219105
424.22	8.36062572
424.423	8.36122011
424.627	8.35902572
424.83	8.35354676
425.033	8.35050715
425.237	8.3492885
425.44	8.3463312
425.644	8.34475318
425.847	8.33802332
426.05	8.33585207
426.254	8.33096614
426.457	8.32982804
426.66	8.32710602
426.864	8.32457183
427.067	8.3205315
427.27	8.31896575
427.474	8.31729879
427.677	8.31556818
427.88	8.3135433
428.084	8.31189056
428.287	8.30572726
428.49	8.30317096
428.693	8.3004113
428.896	8.29651148
429.1	8.29554971
429.303	8.29401244
429.506	8.29274438
429.709	8.29526644
429.912	8.29055033
430.116	8.29237613
430.319	8.28918582
430.522	8.28961661
430.725	8.28638056
430.928	8.28665465
431.131	8.28266531
431.334	8.28082196
431.537	8.28004777
431.74	8.27767828
431.943	8.27858067
432.146	8.27858062
432.349	8.27664698
432.552	8.27681247
432.755	8.27292895
432.958	8.26903481
433.161	8.26790594
433.364	8.26730764
433.567	8.26808169
433.77	8.2653609
433.973	8.26108458
434.176	8.2618748
434.379	8.25877798
434.582	8.2605115
434.785	8.26241968
434.988	8.2640965
435.19	8.26160607
435.393	8.26201447
435.596	8.26174727
435.799	8.25828839
436.002	8.25669537
436.205	8.25289967
436.407	8.2491853
436.61	8.24679541
436.813	8.24795643
437.016	8.2481273
437.218	8.24897426
437.421	8.2476446
437.624	8.24741212
437.827	8.24192658
438.029	8.23755939
438.232	8.23722177
438.435	8.23315128
438.637	8.23127271
438.84	8.22857779
439.043	8.22389988
439.245	8.21837866
439.448	8.21646358
439.65	8.21438295
439.853	8.21078835
440.056	8.21050039
440.258	8.20944291
440.461	8.20678994
440.663	8.20251869
440.866	8.20091577
441.068	8.19736446
441.271	8.19652129
441.473	8.19358046
441.676	8.19330713
441.878	8.19083651
442.081	8.19056712
442.283	8.19149455
442.486	8.18843727
442.688	8.18954719
442.89	8.18892469
443.093	8.18765141
443.295	8.1834223
443.498	8.18291825
443.7	8.18270245
443.902	8.18092089
444.105	8.17923499
444.307	8.17775072
444.509	8.17575532
444.712	8.17587688
444.914	8.17886048
445.116	8.17929946
445.319	8.17746739
445.521	8.17584085
445.723	8.17322685
445.925	8.17263624
446.128	8.17152106
446.33	8.1740107
446.532	8.17095347
446.734	8.16994453
446.936	8.1669701
447.139	8.16524189
447.341	8.16346947
447.543	8.16490275
447.745	8.16354462
447.947	8.16035887
448.149	8.16047267
448.351	8.1606235
448.553	8.15580845
448.755	8.15440816
448.958	8.15117728
449.16	8.14680095
449.362	8.14445995
449.564	8.14367609
449.766	8.14028234
449.968	8.13915828
450.17	8.13806135
450.372	8.13568519
450.574	8.13116611
450.776	8.13128239
450.978	8.12949202
451.179	8.12780635
451.381	8.12600382
451.583	8.12503631
451.785	8.12524698
451.987	8.12388622
452.189	8.12390136
452.391	8.1217239
452.593	8.11961374
452.795	8.12169664
452.996	8.12108158
453.198	8.12068168
453.4	8.12143865
453.602	8.11765831
453.804	8.11497905
454.005	8.11546676
454.207	8.11455806
454.409	8.1118705
454.611	8.10883496
454.812	8.10804964
455.014	8.10845614
455.216	8.10753403
455.417	8.10597203
455.619	8.10354306
455.821	8.10115743
456.022	8.0964858
456.224	8.09672593
456.426	8.09230489
456.627	8.0905086
456.829	8.08595113
457.031	8.08299934
457.232	8.08147985
457.434	8.08108062
457.635	8.07935019
457.837	8.0817253
458.038	8.08272194
458.24	8.07946472
458.441	8.07552514
458.643	8.0747331
458.844	8.07162402
459.046	8.06809904
459.247	8.06751767
459.449	8.06471155
459.65	8.06508574
459.852	8.06413208
460.053	8.0624777
460.254	8.06216172
460.456	8.06007003
460.657	8.05925488
460.859	8.0583118
461.06	8.06016028
461.261	8.05908291
461.463	8.05773879
461.664	8.05486696
461.865	8.05379622
462.066	8.05072631
462.268	8.04780529
462.469	8.05056734
462.67	8.051877
462.872	8.04884149
463.073	8.0492034
463.274	8.04867432
463.475	8.04559563
463.676	8.04425061
463.878	8.04084646
464.079	8.0383265
464.28	8.03722639
464.481	8.03494632
464.682	8.03202484
464.883	8.03148832
465.085	8.02907402
465.286	8.0289215
465.487	8.0258699
465.688	8.02523319
465.889	8.02258791
466.09	8.02137312
466.291	8.01886013
466.492	8.017305
466.693	8.01270705
466.894	8.01222911
467.095	8.01232988
467.296	8.00977194
467.497	8.00946109
467.698	8.00584875
467.899	8.00545774
468.1	8.00530112
468.301	8.00252324
468.502	8.00080337
468.703	7.99913661
468.903	7.99739493
469.104	7.99648712
469.305	7.99747135
469.506	7.9947389
469.707	7.99457005
469.908	7.99166278
470.109	7.9909833
470.309	7.98893441
470.51	7.98730561
470.711	7.98660152
470.912	7.98697063
471.112	7.98384584
471.313	7.98139018
471.514	7.98136878
471.715	7.97644725
471.915	7.97606417
472.116	7.97201788
472.317	7.97075388
472.517	7.97240851
472.718	7.97234997
472.919	7.97286652
473.119	7.97265926
473.32	7.97185725
473.521	7.96838233
473.721	7.96818256
473.922	7.96767739
474.122	7.96720688
474.323	7.96691408
474.523	7.96547362
474.724	7.96485763
474.925	7.96217035
475.125	7.96003385
475.326	7.96105137
475.526	7.95919636
475.727	7.95926627
475.927	7.96032775
476.127	7.95984926
476.328	7.96080323
476.528	7.96027978
476.729	7.95781887
476.929	7.9582522
477.13	7.95465687
477.33	7.95416065
477.53	7.95133232
477.731	7.94828691
477.931	7.94648365
478.131	7.94468461
478.332	7.94410698
478.532	7.9435446
478.732	7.94360944
478.933	7.94298206
479.133	7.94341936
479.333	7.94399157
479.533	7.94107557
479.734	7.94179338
479.934	7.93911773
480.134	7.93923242
480.334	7.93934299
480.534	7.93824898
480.735	7.93768781
480.935	7.93800275
481.135	7.9361373
481.335	7.93575869
481.535	7.9354079
481.735	7.93499747
481.935	7.93570347
482.136	7.93398331
482.336	7.93389083
482.536	7.93273422
482.736	7.92967479
482.936	7.92784101
483.136	7.92680438
483.336	7.92510443
483.536	7.92388897
483.736	7.92189357
483.936	7.91837619
484.136	7.91821855
484.336	7.9155724
484.536	7.91285585
484.736	7.91152796
484.936	7.90796437
485.135	7.90528104
485.335	7.90211598
485.535	7.90304772
485.735	7.90031943
485.935	7.90095416
486.135	7.90180288
486.335	7.90362931
486.534	7.90107891
486.734	7.90009333
486.934	7.90155447
487.134	7.90099994
487.334	7.90085144
487.533	7.90070295
487.733	7.89650799
487.933	7.89693735
488.133	7.89884448
488.332	7.89640218
488.532	7.89700622
488.732	7.89815006
488.931	7.89734206
489.131	7.89784538
489.331	7.89605457
489.53	7.89676439
489.73	7.89361622
489.93	7.89340783
490.129	7.88926808
490.329	7.88652545
490.528	7.88306791
490.728	7.88220764
490.928	7.87968007
491.127	7.87673876
491.327	7.87439483
491.526	7.87111364
491.726	7.86998703
491.925	7.87006769
492.125	7.86897895
492.324	7.86605475
492.524	7.8656002
492.723	7.86367658
492.922	7.858971
493.122	7.8576073
493.321	7.85455105
493.521	7.85567909
493.72	7.85359881
493.919	7.85234692
494.119	7.8498484
494.318	7.84898139
494.517	7.84743545
494.717	7.84684111
494.916	7.84570284
495.115	7.84305471
495.315	7.84376668
495.514	7.84205093
495.713	7.84232782
495.912	7.83967904
496.112	7.83895276
496.311	7.83575847
496.51	7.83551874
496.709	7.83268977
496.908	7.83143093
497.108	7.83227663
497.307	7.8319404
497.506	7.83094172
497.705	7.82928434
497.904	7.82836316
498.103	7.82902262
498.302	7.82624899
498.501	7.82541468
498.701	7.82393059
498.9	7.82222561
499.099	7.8228793
499.298	7.82418456
499.497	7.82140483
499.696	7.82156284
499.895	7.8185525
500.094	7.81865213
500.293	7.81617471
500.492	7.8152877
500.691	7.81241662
500.89	7.81279656
501.088	7.81120153
501.287	7.80939845
501.486	7.80803141
501.685	7.80809386
501.884	7.80706722
502.083	7.80387523
502.282	7.8009723
502.481	7.80067976
502.679	7.80005349
502.878	7.79915627
503.077	7.79762408
503.276	7.79337597
503.475	7.79197812
503.673	7.78911236
503.872	7.78646707
504.071	7.78652883
504.27	7.78365066
504.468	7.78268814
504.667	7.78250585
504.866	7.78108498
505.064	7.77982552
505.263	7.77779265
505.462	7.77594541
505.66	7.77285199
505.859	7.76923887
506.058	7.7662225
506.256	7.76629695
506.455	7.76266356
506.653	7.76193878
506.852	7.76042627
507.05	7.75748726
507.249	7.75369123
507.448	7.75329082
507.646	7.75053411
507.845	7.74985884
508.043	7.74782677
508.242	7.74303453
508.44	7.74163415
508.638	7.73870358
508.837	7.73757342
509.035	7.73594701
509.234	7.73326996
509.432	7.73167786
509.631	7.72827449
509.829	7.7264895
510.027	7.72509163
510.226	7.7230302
510.424	7.72038571
510.622	7.72057358
510.821	7.71636927
511.019	7.71246445
511.217	7.71133515
511.415	7.71093813
511.614	7.70601348
511.812	7.70303675
512.01	7.70070397
512.208	7.69887492
512.407	7.70067304
512.605	7.69701981
512.803	7.69728088
513.001	7.69339946
513.199	7.6915823
513.398	7.68986983
513.596	7.68788912
513.794	7.68749263
513.992	7.68434327
514.19	7.68409152
514.388	7.6814072
514.586	7.68115585
514.784	7.67922751
514.982	7.67968224
515.18	7.67955823
515.378	7.6752208
515.576	7.67262481
515.774	7.67374554
515.972	7.67290973
516.17	7.67088512
516.368	7.67032903
516.566	7.6665603
516.764	7.66689479
516.962	7.66503183
517.16	7.66438184
517.358	7.66233057
517.556	7.65992615
517.754	7.65913574
517.952	7.6572218
518.149	7.65533558
518.347	7.6532557
518.545	7.65140224
518.743	7.64796791
518.941	7.64616932
519.138	7.64516991
519.336	7.64230352
519.534	7.64191118
519.732	7.64150169
519.929	7.63989905
520.127	7.63859482
520.325	7.63740971
520.523	7.63561239
520.72	7.63352265
520.918	7.63034586
521.116	7.62769869
521.313	7.62528685
521.511	7.62278425
521.709	7.62134594
521.906	7.61932114
522.104	7.61615205
522.301	7.6164899
522.499	7.61390237
522.696	7.61273027
522.894	7.61339008
523.092	7.61188452
523.289	7.60863381
523.487	7.6074241
523.684	7.60647181
523.882	7.60318785
524.079	7.60211327
524.276	7.60105531
524.474	7.59915371
524.671	7.59650161
524.869	7.59482293
525.066	7.59360804
525.264	7.59128613
525.461	7.58912564
525.658	7.58861241
525.856	7.58888564
526.053	7.58571954
526.25	7.58658935
526.448	7.58455979
526.645	7.58322496
526.842	7.5821577
527.039	7.57829701
527.237	7.57614317
527.434	7.57395129
527.631	7.57359782
527.828	7.57382177
528.026	7.573498
528.223	7.57084417
528.42	7.56801644
528.617	7.56670486
528.814	7.56526226
529.012	7.56454356
529.209	7.56315505
529.406	7.56383379
529.603	7.56266288
529.8	7.56103992
529.997	7.55793445
530.194	7.55809362
530.391	7.55601766
530.588	7.55530032
530.785	7.55446288
530.982	7.55264812
531.179	7.55152191
531.376	7.55117
531.573	7.55055471
531.77	7.54785007
531.967	7.54647657
532.164	7.54553625
532.361	7.54362702
532.558	7.54306037
532.755	7.53967623
532.952	7.53852382
533.149	7.53702069
533.346	7.53592828
533.543	7.53282376
533.739	7.53159518
533.936	7.52869628
534.133	7.5268881
534.33	7.52369208
534.527	7.52152744
534.723	7.51956622
534.92	7.51734388
535.117	7.51745835
535.314	7.51637898
535.51	7.51359651
535.707	7.51116227
535.904	7.51044402
536.1	7.50722101
536.297	7.50464311
536.494	7.50509197
536.69	7.50217255
536.887	7.50280867
537.084	7.49985362
537.28	7.49856026
537.477	7.49627634
537.674	7.49550744
537.87	7.49426207
538.067	7.49371843
538.263	7.49309986
538.46	7.49239119
538.656	7.49136956
538.853	7.48918865
539.049	7.48824605
539.246	7.48485572
539.442	7.48342443
539.639	7.48278572
539.835	7.48278386
540.032	7.48091851
540.228	7.47858063
540.424	7.47777735
540.621	7.4743279
540.817	7.47344106
541.014	7.47238365
541.21	7.47351457
541.406	7.47173905
541.603	7.47063316
541.799	7.4690452
541.995	7.46910344
542.191	7.4684234
542.388	7.46618321
542.584	7.46718893
542.78	7.4644589
542.976	7.46202336
543.173	7.46143932
543.369	7.46106973
543.565	7.46073493
543.761	7.4602696
543.957	7.45961511
544.154	7.45855953
544.35	7.45869536
544.546	7.45822321
544.742	7.45693135
544.938	7.45750766
545.134	7.45609052
545.33	7.45397477
545.526	7.45180168
545.722	7.45218546
545.919	7.45037457
546.115	7.44633592
546.311	7.44440726
546.507	7.44330596
546.703	7.43719671
546.899	7.43601211
547.095	7.43636897
547.29	7.43488992
547.486	7.43312868
547.682	7.42982666
547.878	7.42791803
548.074	7.42535866
548.27	7.42455406
548.466	7.42314167
548.662	7.4205066
548.858	7.42057597
549.053	7.41799436
549.249	7.41706824
549.445	7.41642163
549.641	7.41743424
549.837	7.41535554
550.032	7.4148403
550.228	7.41583795
550.424	7.41468095
550.62	7.41405095
550.815	7.41405227
551.011	7.41411118
551.207	7.41238917
551.402	7.41138671
551.598	7.41070335
551.794	7.41104771
551.989	7.40879118
552.185	7.40716217
552.381	7.40856573
552.576	7.40715281
552.772	7.40537836
552.967	7.40609878
553.163	7.40644177
553.359	7.40491107
553.554	7.40451773
553.75	7.40178113
553.945	7.4003251
554.141	7.39981226
554.336	7.39895422
554.532	7.39714537
554.727	7.39689627
554.922	7.39880786
555.118	7.39508927
555.313	7.39533605
555.509	7.39448823
555.704	7.39383443
555.899	7.39153005
556.095	7.39094492
556.29	7.38921189
556.486	7.38619257
556.681	7.38503372
556.876	7.38643179
557.071	7.38222522
557.267	7.37950476
557.462	7.37858187
557.657	7.37509683
557.853	7.3739585
558.048	7.37247593
558.243	7.37018945
558.438	7.3690567
558.633	7.3672197
558.829	7.36556178
559.024	7.36391151
559.219	7.3673094
559.414	7.36465578
559.609	7.36140208
559.804	7.3594362
559.999	7.35844039
560.194	7.35827456
560.39	7.35975441
560.585	7.35805551
560.78	7.35738751
560.975	7.35556125
561.17	7.35580253
561.365	7.35494991
561.56	7.35294971
561.755	7.35323561
561.95	7.35357034
562.145	7.3551632
562.34	7.35301802
562.535	7.35138958
562.729	7.35423653
562.924	7.35184631
563.119	7.35116119
563.314	7.34966494
563.509	7.34937775
563.704	7.349605
563.899	7.35093131
564.093	7.35117767
564.288	7.3497016
564.483	7.34763266
564.678	7.34560569
564.873	7.34450159
565.067	7.34453429
565.262	7.34250853
565.457	7.34191746
565.652	7.34268935
565.846	7.34015248
566.041	7.33902186
566.236	7.33487727
566.43	7.33453577
566.625	7.33354373
566.82	7.33155948
567.014	7.33361931
567.209	7.33090562
567.404	7.32986803
567.598	7.32848819
567.793	7.32712138
567.987	7.32550902
568.182	7.32260253
568.376	7.32099943
568.571	7.32014723
568.765	7.31868064
568.96	7.3170221
569.154	7.31317464
569.349	7.31407823
569.543	7.313105
569.738	7.31223581
569.932	7.3118939
570.127	7.31105883
570.321	7.31155758
570.515	7.31302978
570.71	7.31417929
570.904	7.31346074
571.098	7.31197379
571.293	7.31271635
571.487	7.30948629
571.681	7.30785568
571.876	7.30836544
572.07	7.30743125
572.264	7.30763246
572.458	7.3079054
572.653	7.30872132
572.847	7.30914072
573.041	7.30938381
573.235	7.31228205
573.43	7.30884918
573.624	7.30871738
573.818	7.30945397
574.012	7.30918277
574.206	7.30799976
574.4	7.30824868
574.594	7.3069436
574.788	7.30288209
574.983	7.30138285
575.177	7.30061942
575.371	7.2980263
575.565	7.29941219
575.759	7.3004813
575.953	7.30098015
576.147	7.3013676
576.341	7.30070506
576.535	7.29906375
576.729	7.29764145
576.923	7.29579214
577.117	7.2953479
577.31	7.29231915
577.504	7.29208615
577.698	7.28982788
577.892	7.28673143
578.086	7.28563958
578.28	7.28640629
578.474	7.2837436
578.668	7.27962017
578.861	7.27816041
579.055	7.27787598
579.249	7.27413596
579.443	7.27383847
579.636	7.27276122
579.83	7.27192866
580.024	7.27181617
580.218	7.26876891
580.411	7.26961608
580.605	7.26988017
580.799	7.26701462
580.992	7.26860845
581.186	7.26805368
581.38	7.267526
581.573	7.26792304
581.767	7.26831426
581.961	7.26571294
582.154	7.26523923
582.348	7.26090858
582.541	7.2604607
582.735	7.26101938
582.928	7.26202011
583.122	7.26075997
583.315	7.26054718
583.509	7.26094778
583.702	7.25877251
583.896	7.25736522
584.089	7.25368286
584.283	7.25266798
584.476	7.24957563
584.67	7.24676028
584.863	7.24643182
585.056	7.24530372
585.25	7.24276286
585.443	7.2402945
585.636	7.23880755
585.83	7.23619307
586.023	7.23702476
586.216	7.23578224
586.41	7.23628306
586.603	7.23508554
586.796	7.23450857
586.989	7.23204452
587.183	7.23159597
587.376	7.23261068
587.569	7.2293021
587.762	7.22751341
587.955	7.22622965
588.149	7.22106164
588.342	7.219675
588.535	7.21676614
588.728	7.21786438
588.921	7.21523243
589.114	7.21380511
589.307	7.21402963
589.5	7.21379993
589.693	7.21432367
589.886	7.21451958
590.08	7.2099226
590.273	7.21103356
590.466	7.20988058
590.659	7.21043147
590.852	7.2102194
591.044	7.21018075
591.237	7.20902769
591.43	7.20494722
591.623	7.20471736
591.816	7.2054006
592.009	7.20291508
592.202	7.20733825
592.395	7.20877906
592.588	7.20665998
592.781	7.20201266
592.973	7.20282527
593.166	7.19890612
593.359	7.19781989
593.552	7.19440346
593.745	7.19281427
593.937	7.19020542
594.13	7.18989779
594.323	7.18863188
594.515	7.18800446
594.708	7.18535609
594.901	7.18418688
595.094	7.18089659
595.286	7.17993358
595.479	7.18160018
595.672	7.1776685
595.864	7.1743768
596.057	7.17675697
596.249	7.1729009
596.442	7.16681077
596.635	7.16970293
596.827	7.17046853
597.02	7.1684526
597.212	7.16652304
597.405	7.16684623
597.597	7.16641564
597.79	7.16361318
597.982	7.16237233
598.175	7.16443924
598.367	7.16154281
598.559	7.16072717
598.752	7.159258
598.944	7.15956733
599.137	7.15916705
599.329	7.15521007
599.521	7.15408438
599.714	7.15403255
599.906	7.15318859
600.098	7.14880688
600.291	7.1471006
600.483	7.1451447
600.675	7.1422755
600.868	7.1417777
601.06	7.13983021
601.252	7.14115927
601.444	7.13535092
601.637	7.13522951
601.829	7.13521383
602.021	7.13205998
602.213	7.12698527
602.405	7.12526102
602.597	7.12508679
602.789	7.12472845
602.982	7.12090582
603.174	7.12022539
603.366	7.12066731
603.558	7.1181248
603.75	7.12259337
603.942	7.12241083
604.134	7.11925013
604.326	7.11859273
604.518	7.12040437
604.71	7.11875358
604.902	7.11608349
605.094	7.11642634
605.286	7.11383471
605.478	7.11253647
605.67	7.11188721
605.862	7.10830208
606.054	7.10814746
606.246	7.1108808
606.437	7.10959483
606.629	7.10449938
606.821	7.10267968
607.013	7.09831684
607.205	7.09992481
607.397	7.0995875
607.588	7.0984271
607.78	7.09321501
607.972	7.09257485
608.164	7.09334605
608.355	7.09340784
608.547	7.09061113
608.739	7.08929587
608.93	7.08959634
609.122	7.08893424
609.314	7.08896656
609.505	7.08859652
609.697	7.08710859
609.889	7.08503138
610.08	7.08446101
610.272	7.0818863
610.463	7.08057558
610.655	7.08107027
610.847	7.0791439
611.038	7.08058387
611.23	7.07521882
611.421	7.07471528
611.613	7.07429395
611.804	7.07273189
611.996	7.07343872
612.187	7.07158302
612.379	7.07104088
612.57	7.07087024
612.761	7.07266531
612.953	7.07117722
613.144	7.06920158
613.336	7.06761245
613.527	7.06847679
613.718	7.06862356
613.91	7.06974983
614.101	7.06990134
614.292	7.07031973
614.483	7.07208902
614.675	7.07177614
614.866	7.07395585
615.057	7.07206515
615.248	7.07185796
615.44	7.06573034
615.631	7.06162175
615.822	7.05792799
616.013	7.0566069
616.204	7.05564733
616.396	7.05257813
616.587	7.0514792
616.778	7.04875131
616.969	7.04586685
617.16	7.04646931
617.351	7.0447195
617.542	7.04229443
617.733	7.03908524
617.924	7.03559322
618.115	7.03477035
618.306	7.02982941
618.497	7.02586623
618.688	7.02467034
618.879	7.02190509
619.07	7.02309666
619.261	7.02470725
619.452	7.02581597
619.643	7.02512619
619.834	7.02381492
620.025	7.01738993
620.216	7.01599473
620.407	7.01436874
620.597	7.01252344
620.788	7.01107294
620.979	7.01000683
621.17	7.00806359
621.361	7.00737438
621.551	7.00733366
621.742	7.00533349
621.933	7.00696265
622.124	7.00304556
622.314	7.00506757
622.505	7.00703788
622.696	7.00535214
622.886	7.00292277
623.077	7.00104202
623.268	6.99987581
623.458	7.00105272
623.649	7.00145577
623.84	7.00417941
624.03	7.00686336
624.221	7.00976106
624.411	7.0114434
624.602	7.01048131
624.792	7.01228132
624.983	7.01477374
625.173	7.01352741
625.364	7.0137601
625.554	7.01397777
625.745	7.01734776
625.935	7.01413671
626.126	7.01401819
626.316	7.0131844
626.507	7.00932909
626.697	7.00818217
626.887	7.00682607
627.078	7.00333698
627.268	7.00283652
627.458	7.00206596
627.649	7.00087271
627.839	7.00064685
628.029	6.99719986
628.22	6.99378755
628.41	6.99045713
628.6	6.98964618
628.79	6.98347055
628.981	6.97861432
629.171	6.97608771
629.361	6.97193667
629.551	6.96769402
629.741	6.96337658
629.932	6.96397984
630.122	6.96412341
630.312	6.96291541
630.502	6.96054223
630.692	6.95863581
630.882	6.95828377
631.072	6.96514524
631.262	6.96285313
631.452	6.96113901
631.642	6.96108827
631.832	6.96495692
632.022	6.96677718
632.212	6.96674702
632.402	6.96992752
632.592	6.96942488
632.782	6.97365875
632.972	6.97544257
633.162	6.97638524
633.352	6.97917795
633.542	6.97943
633.732	6.97982029
633.922	6.97979322
634.111	6.98014161
634.301	6.97711871
634.491	6.97570036
634.681	6.97369785
634.871	6.97295959
635.06	6.97099266
635.25	6.97091584
635.44	6.96813828
635.63	6.96556954
635.819	6.96041343
636.009	6.96087685
636.199	6.96014542
636.388	6.9606075
636.578	6.96319213
636.768	6.96166505
636.957	6.96160268
637.147	6.95794063
637.337	6.95689532
637.526	6.95690365
637.716	6.95854032
637.905	6.95688376
638.095	6.95577454
638.284	6.95641687
638.474	6.95785385
638.663	6.96181249
638.853	6.96018574
639.042	6.95799388
639.232	6.95479169
639.421	6.95553648
639.611	6.95791599
639.8	6.95536692
639.99	6.95651584
640.179	6.95723082
640.368	6.95231233
640.558	6.95267892
640.747	6.95305003
640.936	6.95025515
641.126	6.95240534
641.315	6.95028858
641.504	6.94683633
641.694	6.9438091
641.883	6.94342971
642.072	6.94436419
642.261	6.94379928
642.451	6.94602824
642.64	6.94547904
642.829	6.948384
643.018	6.94501163
643.207	6.94788115
643.397	6.94952411
643.586	6.94580896
643.775	6.9466305
643.964	6.94395252
644.153	6.94347618
644.342	6.94435389
644.531	6.94162127
644.72	6.93871098
644.909	6.93923648
645.098	6.93605247
645.287	6.9376358
645.476	6.940051
645.665	6.93833684
645.854	6.93826447
646.043	6.93562422
646.232	6.93575459
646.421	6.93174268
646.61	6.93002106
646.799	6.92660717
646.988	6.92875501
647.177	6.9265863
647.365	6.924221
647.554	6.9286792
647.743	6.92997371
647.932	6.92632009
648.121	6.92531564
648.309	6.92315228
648.498	6.92366725
648.687	6.9218881
648.876	6.91883772
649.064	6.91888579
649.253	6.91858148
649.442	6.91924562
649.63	6.91990349
649.819	6.91752825
650.008	6.91792388
650.196	6.91720413
650.385	6.91837448
650.574	6.91549984
650.762	6.91734877
650.951	6.91301086
651.139	6.91171718
651.328	6.91057051
651.516	6.91075405
651.705	6.90891539
651.893	6.9082996
652.082	6.90786081
652.27	6.90721513
652.459	6.90287624
652.647	6.90557342
652.836	6.90866306
653.024	6.9108018
653.213	6.90940327
653.401	6.90465636
653.589	6.90419411
653.778	6.90574965
653.966	6.89950506
654.154	6.8981704
654.343	6.89795949
654.531	6.89873595
654.719	6.89520077
654.908	6.89594315
655.096	6.89514508
655.284	6.89968529
655.472	6.89119896
655.661	6.88729924
655.849	6.88605514
656.037	6.88343148
656.225	6.88171811
656.413	6.88351589
656.601	6.88233015
656.79	6.88345788
656.978	6.88444208
657.166	6.88258966
657.354	6.88586902
657.542	6.88614749
657.73	6.8859099
657.918	6.89014062
658.106	6.891389
658.294	6.89015475
658.482	6.88846157
658.67	6.89359146
658.858	6.89136336
659.046	6.89035453
659.234	6.88313882
659.422	6.88888902
659.61	6.89016365
659.798	6.89389928
659.986	6.89667733
660.173	6.89733491
660.361	6.89449831
660.549	6.89292777
660.737	6.88978801
660.925	6.88280685
661.113	6.88197299
661.3	6.87698908
661.488	6.87391305
661.676	6.8744357
661.864	6.87193515
662.051	6.87048116
662.239	6.86560757
662.427	6.86127065
662.614	6.8550681
662.802	6.85543284
662.99	6.85715782
663.177	6.86223018
663.365	6.86008848
663.553	6.85998314
663.74	6.85912005
663.928	6.85645724
664.115	6.85189878
664.303	6.85040369
664.49	6.8507386
664.678	6.85146818
664.866	6.8577128
665.053	6.85579614
665.24	6.8588926
665.428	6.85751765
665.615	6.85360648
665.803	6.85465772
665.99	6.85399007
666.178	6.85676277
666.365	6.85890124
666.552	6.85633899
666.74	6.85787163
666.927	6.84962178
667.114	6.84452656
667.302	6.83957687
667.489	6.83670772
667.676	6.83068977
667.864	6.82799622
668.051	6.82966158
668.238	6.83270119
668.425	6.8260004
668.613	6.81994104
668.8	6.81488363
668.987	6.81220073
669.174	6.80757409
669.361	6.81014153
669.548	6.81210217
669.736	6.81299507
669.923	6.81003303
670.11	6.81107426
670.297	6.81181145
670.484	6.81213048
670.671	6.80811177
670.858	6.81389051
671.045	6.81211154
671.232	6.8150256
671.419	6.81604037
671.606	6.81686605
671.793	6.81627116
671.98	6.81085538
672.167	6.80414268
672.354	6.8050659
672.541	6.80452223
672.728	6.8014936
672.915	6.80560888
673.101	6.80756159
673.288	6.80270879
673.475	6.80076959
673.662	6.79679305
673.849	6.79502289
674.035	6.78962315
674.222	6.78705608
674.409	6.79055473
674.596	6.78869566
674.783	6.79083191
674.969	6.79217719
675.156	6.78710162
675.343	6.7853314
675.529	6.78047666
675.716	6.77932557
675.903	6.78224477
676.089	6.7846853
676.276	6.78848027
676.462	6.78970583
676.649	6.79267796
676.836	6.78623331
677.022	6.78761385
677.209	6.7889196
677.395	6.78226829
677.582	6.78013948
677.768	6.7810622
677.955	6.7805568
678.141	6.78149954
678.328	6.7761082
678.514	6.77754191
678.701	6.77167514
678.887	6.7690804
679.073	6.77231558
679.26	6.76799773
679.446	6.77314667
679.632	6.77259949
679.819	6.77532256
680.005	6.77399245
680.191	6.76735863
680.378	6.76228792
680.564	6.76237199
680.75	6.76411563
680.936	6.75775055
681.123	6.75606477
681.309	6.75707803
681.495	6.75735469
681.681	6.75319608
681.867	6.75497088
682.054	6.74914637
682.24	6.74700397
682.426	6.74340649
682.612	6.74276212
682.798	6.74109234
682.984	6.73992554
683.17	6.7419557
683.356	6.74020423
683.542	6.73865302
683.728	6.7313496
683.914	6.7263828
684.1	6.72741186
684.286	6.72700744
684.472	6.72348606
684.658	6.7217987
684.844	6.72242871
685.03	6.72236335
685.216	6.72027729
685.402	6.72270987
685.588	6.72341789
685.774	6.72492071
685.96	6.72426256
686.145	6.72114804
686.331	6.71977023
686.517	6.71571726
686.703	6.71651474
686.889	6.70975092
687.074	6.70745713
687.26	6.70821897
687.446	6.70541221
687.631	6.70417738
687.817	6.69856856
688.003	6.69515395
688.189	6.69602288
688.374	6.69814948
688.56	6.70019293
688.745	6.69788326
688.931	6.69000155
689.117	6.68492757
689.302	6.68056788
689.488	6.67591869
689.673	6.66533905
689.859	6.66669877
690.044	6.66350397
690.23	6.66270198
690.415	6.66106239
690.601	6.65483577
690.786	6.65025764
690.972	6.64665476
691.157	6.63878823
691.343	6.63022026
691.528	6.63496002
691.713	6.63329752
691.899	6.63602157
692.084	6.63820914
692.269	6.63038974
692.455	6.62139767
692.64	6.61460256
692.825	6.61250574
693.011	6.61242275
693.196	6.60716621
693.381	6.60717707
693.566	6.6024081
693.752	6.59638846
693.937	6.59501334
694.122	6.58688415
694.307	6.57791666
694.492	6.57805531
694.678	6.57926945
694.863	6.5727639
695.048	6.57107157
695.233	6.57163464
695.418	6.55787008
695.603	6.55997642
695.788	6.55056534
695.973	6.54052767
696.158	6.53600918
696.343	6.52912357
696.528	6.52866961
696.713	6.52763041
696.898	6.52559065
697.083	6.52241051
697.268	6.51747489
697.453	6.51694376
697.638	6.51797785
697.823	6.51676833
698.008	6.51371475
698.192	6.51179536
698.377	6.5044639
698.562	6.50189062
698.747	6.49860966
698.932	6.4957158
699.117	6.48843302
699.301	6.49383658
699.486	6.48859733
699.671	6.48484112
699.856	6.48040043
700.04	6.47261821
700.225	6.4708479
700.41	6.4632921
700.594	6.45794473
700.779	6.45463908
700.964	6.44994427
701.148	6.4427163
701.333	6.43777766
701.517	6.42817521
701.702	6.42516158
701.887	6.42562715
702.071	6.42262407
702.256	6.41909247
702.44	6.41272967
702.625	6.40687315
702.809	6.39886363
702.994	6.40016329
703.178	6.39256947
703.362	6.38638702
703.547	6.38244275
703.731	6.38103555
703.916	6.38309083
704.1	6.377231
704.284	6.37427194
704.469	6.36462877
704.653	6.35391043
704.837	6.34965603
705.022	6.34771496
705.206	6.34165359
705.39	6.33889552
705.575	6.32836899
705.759	6.32236758
705.943	6.32032673
706.127	6.31119126
706.311	6.30421009
706.496	6.30188726
706.68	6.29543981
706.864	6.28927833
707.048	6.28517963
707.232	6.28098576
707.416	6.28024104
707.6	6.27461376
707.785	6.26674069
707.969	6.26363088
708.153	6.25701217
708.337	6.25818523
708.521	6.25826849
708.705	6.25282911
708.889	6.24563834
709.073	6.2484406
709.257	6.24145367
709.441	6.24197118
709.624	6.24109368
709.808	6.23475345
709.992	6.23486767
710.176	6.22991375
710.36	6.22694106
710.544	6.21936992
710.728	6.21264205
710.912	6.20906444
711.095	6.20275148
711.279	6.19147754
711.463	6.18744976
711.647	6.18271664
711.83	6.18259153
712.014	6.18302467
712.198	6.17630305
712.382	6.16889073
712.565	6.16616819
712.749	6.16116087
712.933	6.15260211
713.116	6.15152259
713.3	6.14667786
713.483	6.12947815
713.667	6.12700289
713.851	6.12111045
714.034	6.11862499
714.218	6.11847541
714.401	6.12081541
714.585	6.11536251
714.768	6.10276444
714.952	6.0983665
715.135	6.09325284
715.319	6.08849996
715.502	6.08495957
715.686	6.07776291
715.869	6.06730928
716.052	6.07007568
716.236	6.07249603
716.419	6.06818325
716.602	6.05983258
716.786	6.05687082
716.969	6.05061746
717.152	6.04819645
717.336	6.04913822
717.519	6.03920589
717.702	6.03103929
717.885	6.0257085
718.069	6.01201524
718.252	6.00680683
718.435	6.00577049
718.618	6.00038625
718.801	5.99835422
718.985	5.99276573
719.168	5.98407951
719.351	5.98005727
719.534	5.97186134
719.717	5.97123842
719.9	5.95919218
720.083	5.94518446
720.266	5.93950366
720.449	5.94198957
720.632	5.93016594
720.815	5.92737827
720.998	5.91756892
721.181	5.91086472
721.364	5.9141685
721.547	5.90907508
721.73	5.90606809
721.913	5.91068929
722.096	5.90431242
722.279	5.89832192
722.461	5.90194826
722.644	5.89802604
722.827	5.89596022
723.01	5.89051781
723.193	5.87345193
723.376	5.86717543
723.558	5.86570981
723.741	5.86100348
723.924	5.8609214
724.107	5.8515301
724.289	5.83726024
724.472	5.82797152
724.655	5.81960071
724.837	5.81595779
725.02	5.80967756
725.203	5.7956222
725.385	5.79097368
725.568	5.78463714
725.75	5.77440801
725.933	5.7725621
726.115	5.76303872
726.298	5.75635037
726.481	5.75031549
726.663	5.74405595
726.845	5.7383374
727.028	5.74403639
727.21	5.74391773
727.393	5.73053347
727.575	5.72395208
727.758	5.71789187
727.94	5.719018
728.122	5.71451434
728.305	5.71516941
728.487	5.7118998
728.67	5.70063458
728.852	5.70497643
729.034	5.70577493
729.216	5.70212068
729.399	5.69747573
729.581	5.69430959
729.763	5.68753911
729.945	5.68829411
730.128	5.68173929
730.31	5.67174224
730.492	5.67394218
730.674	5.67031241
730.856	5.66529068
731.039	5.65939011
731.221	5.66160285
731.403	5.66217636
731.585	5.66400121
731.767	5.65981806
731.949	5.66400084
732.131	5.65797941
732.313	5.65322583
732.495	5.65434825
732.677	5.64484411
732.859	5.63807452
733.041	5.63777391
733.223	5.63342206
733.405	5.62724367
733.587	5.62161204
733.769	5.61932295
733.951	5.618524
734.132	5.6205615
734.314	5.61550197
734.496	5.61322539
734.678	5.60972565
734.86	5.60376215
735.042	5.60095281
735.223	5.59567332
735.405	5.59246892
735.587	5.58578997
735.769	5.57977048
735.95	5.57750125
736.132	5.57484153
736.314	5.57021096
736.495	5.56956385
736.677	5.57099049
736.859	5.56944379
737.04	5.56314045
737.222	5.56139568
737.403	5.55735298
737.585	5.55446871
737.767	5.54591972
737.948	5.54157602
738.13	5.53284604
738.311	5.52923944
738.493	5.52939915
738.674	5.5263754
738.856	5.52193863
739.037	5.52104356
739.219	5.5157631
739.4	5.51467361
739.581	5.51622333
739.763	5.51503372
739.944	5.50922312
740.125	5.50951688
740.307	5.50331345
740.488	5.49705759
740.669	5.49105939
740.851	5.49654114
741.032	5.49106317
741.213	5.49514507
741.395	5.4883915
741.576	5.49273307
741.757	5.49280806
741.938	5.497831
742.119	5.49485043
742.301	5.48647982
742.482	5.48667561
742.663	5.48201544
742.844	5.47423004
743.025	5.46872102
743.206	5.45844724
743.387	5.45284808
743.568	5.45467432
743.749	5.45827656
743.93	5.45496378
744.111	5.44812573
744.292	5.44354551
744.473	5.44259278
744.654	5.43748355
744.835	5.43435581
745.016	5.4271152
745.197	5.42902585
745.378	5.42117169
745.559	5.4196144
745.74	5.40872937
745.921	5.40628478
746.102	5.40755265
746.282	5.40725528
746.463	5.40561522
746.644	5.40791035
746.825	5.40812677
747.006	5.41285862
747.186	5.40988541
747.367	5.40073807
747.548	5.39462497
747.728	5.39420398
747.909	5.3961602
748.09	5.40032893
748.27	5.39903206
748.451	5.39020274
748.632	5.38982754
748.812	5.39009025
748.993	5.38245026
749.173	5.37854676
749.354	5.37751349
749.535	5.38145775
749.715	5.37902411
749.896	5.37573031
750.076	5.36960549
750.257	5.36708547
750.437	5.36657704
750.618	5.3623326
750.798	5.36094183
750.978	5.36964458
751.159	5.37238687
751.339	5.37068431
751.52	5.36068027
751.7	5.36287159
751.88	5.360542
752.061	5.35088434
752.241	5.35817718
752.421	5.35453679
752.601	5.34519655
752.782	5.34800583
752.962	5.35240015
753.142	5.35237135
753.322	5.34130822
753.503	5.34014503
753.683	5.3386304
753.863	5.34114746
754.043	5.34238827
754.223	5.33538114
754.403	5.33568749
754.583	5.33099914
754.764	5.30925343
754.944	5.30897433
755.124	5.30508676
755.304	5.31100556
755.484	5.30040266
755.664	5.29336507
755.844	5.2940797
756.024	5.28721004
756.204	5.29583014
756.384	5.29888212
756.564	5.29753669
756.743	5.28175008
756.923	5.26875429
757.103	5.27420813
757.283	5.27280152
757.463	5.26414061
757.643	5.25844098
757.823	5.25939772
758.002	5.25481707
758.182	5.24709788
758.362	5.2450567
758.542	5.24810565
758.721	5.24231092
758.901	5.24465814
759.081	5.245952
759.261	5.25653601
759.44	5.2550331
759.62	5.25665236
759.8	5.2466834
759.979	5.23500657
760.159	5.23425239
760.338	5.22233777
760.518	5.22480391
760.698	5.22632538
760.877	5.22273302
761.057	5.22498889
761.236	5.23003977
761.416	5.22662183
761.595	5.21916772
761.775	5.22003487
761.954	5.21696159
762.133	5.21590454
762.313	5.22279137
762.492	5.22371765
762.672	5.21688699
762.851	5.20757926
763.03	5.20426129
763.21	5.20497851
763.389	5.20408906
763.568	5.20761331
763.748	5.20352472
763.927	5.20607961
764.106	5.20612122
764.286	5.20388551
764.465	5.19980089
764.644	5.19773049
764.823	5.19992811
765.002	5.18734665
765.182	5.182727
765.361	5.18127017
765.54	5.17908016
765.719	5.18973576
765.898	5.18862644
766.077	5.18268151
766.256	5.17840288
766.435	5.17743818
766.614	5.18379319
766.793	5.17012068
766.972	5.16697304
767.151	5.1630908
767.33	5.1634636
767.509	5.15823864
767.688	5.15334349
767.867	5.15419341
768.046	5.15655925
768.225	5.15850239
768.404	5.15726947
768.583	5.14709944
768.762	5.15576442
768.94	5.15930829
769.119	5.15644846
769.298	5.15530116
769.477	5.14709729
769.656	5.14752124
769.834	5.13970052
770.013	5.1410315
770.192	5.13669554
770.37	5.1240611
770.549	5.13007658
770.728	5.12876201
770.906	5.12130363
771.085	5.11108542
771.264	5.11528555
771.442	5.11569111
771.621	5.11365706
771.799	5.10690619
771.978	5.10635777
772.157	5.09861152
772.335	5.0926474
772.514	5.08588789
772.692	5.07641592
772.871	5.07599889
773.049	5.07500532
773.228	5.07576892
773.406	5.07487052
773.584	5.07783496
773.763	5.06778652
773.941	5.06969024
774.119	5.0675996
774.298	5.06877327
774.476	5.05743259
774.655	5.06128397
774.833	5.06839284
775.011	5.06238093
775.189	5.05980209
775.368	5.05746287
775.546	5.06445493
775.724	5.05943818
775.902	5.06828563
776.08	5.07625148
776.259	5.0733017
776.437	5.07863545
776.615	5.07434981
776.793	5.0742722
776.971	5.06741022
777.149	5.05560071
777.327	5.0537026
777.505	5.05295494
777.683	5.05268832
777.861	5.06315789
778.04	5.06075582
778.218	5.06434805
778.395	5.06839832
778.573	5.0615075
778.751	5.06201616
778.929	5.06046848
779.107	5.06340068
779.285	5.05567129
779.463	5.05079837
779.641	5.04518369
779.819	5.03438962
779.997	5.03647384
780.174	5.03710024
780.352	5.03453878
780.53	5.02580322
780.708	5.02336658
780.886	5.02682084
781.063	5.01733221
781.241	5.00799904
781.419	5.00455445
781.596	4.99739182
781.774	4.99088308
781.952	4.99069629
782.129	4.98926638
782.307	4.98742256
782.485	4.98339206
782.662	4.98390082
782.84	4.97099791
783.017	4.96672385
783.195	4.96827376
783.372	4.96048904
783.55	4.9663501
783.727	4.95965362
783.905	4.95174722
784.082	4.95394342
784.26	4.95323904
784.437	4.94251402
784.615	4.93327202
784.792	4.9468873
784.969	4.95975352
785.147	4.96030088
785.324	4.95444096
785.501	4.95457245
785.679	4.95222867
785.856	4.93837668
786.033	4.93089002
786.211	4.93145638
786.388	4.92324357
786.565	4.91788364
786.742	4.91956035
786.92	4.913851
787.097	4.91281864
787.274	4.90349878
787.451	4.90002925
787.628	4.90283478
787.805	4.90069869
787.982	4.90367232
788.16	4.90604014
788.337	4.91589284
788.514	4.91159721
788.691	4.90351751
788.868	4.89868194
789.045	4.89961176
789.222	4.89126305
789.399	4.8870277
789.576	4.88825388
789.753	4.89314535
789.93	4.89002153
790.106	4.88104365
790.283	4.88906697
790.46	4.88386596
790.637	4.88411635
790.814	4.8948493
790.991	4.90354751
791.168	4.90503258
791.344	4.89473066
791.521	4.8894285
791.698	4.88543407
791.875	4.88781706
792.051	4.87818888
792.228	4.86961895
792.405	4.87860549
792.581	4.88131033
792.758	4.87020983
792.935	4.86965609
793.111	4.86983419
793.288	4.86173916
793.465	4.85677054
793.641	4.85468911
793.818	4.86583317
793.994	4.86256582
794.171	4.8646353
794.347	4.85546972
794.524	4.84410531
794.7	4.83243449
794.877	4.82567933
795.053	4.82095347
795.23	4.81164982
795.406	4.81473791
795.583	4.80219506
795.759	4.80269607
795.935	4.79014412
796.112	4.7686122
796.288	4.74690321
796.464	4.74105542
796.641	4.73944288
796.817	4.75081047
796.993	4.7596425
797.169	4.75804081
797.346	4.7599581
797.522	4.74603217
797.698	4.74056422
797.874	4.74753458
798.051	4.74742345
798.227	4.7468752
798.403	4.74959676
798.579	4.75339162
798.755	4.76708065
798.931	4.78196861
799.107	4.78417002
799.283	4.79437566
799.459	4.79420749
799.635	4.80523741
799.811	4.80620942
799.987	4.82522496
800.163	4.82626489
800.339	4.83238678
800.515	4.81991655
800.691	4.80758236
800.867	4.80237737
801.043	4.79599412
801.219	4.79680765
801.395	4.79554691
801.571	4.78493599
801.746	4.79146013
801.922	4.78815507
802.098	4.78517925
802.274	4.77858069
802.45	4.76949118
802.625	4.75789841
802.801	4.72284903
802.977	4.71172364
803.152	4.7185869
803.328	4.71583509
803.504	4.70923562
803.679	4.6952075
803.855	4.69873907
804.031	4.69572924
804.206	4.68873315
804.382	4.7106961
804.557	4.72620085
804.733	4.72051709
804.909	4.71396714
805.084	4.72377919
805.26	4.68631197
805.435	4.68994628
805.61	4.68964224
805.786	4.68185092
805.961	4.68910509
806.137	4.6834796
806.312	4.67526125
806.488	4.69074107
806.663	4.67590399
806.838	4.64697219
807.014	4.64384286
807.189	4.63953942
807.364	4.62544344
807.54	4.61604577
807.715	4.60009858
807.89	4.61381319
808.065	4.57662747
808.241	4.56345161
808.416	4.55134311
808.591	4.55995702
808.766	4.55960717
808.941	4.60304944
809.116	4.5907791
809.291	4.57526342
809.467	4.56820039
809.642	4.56796217
809.817	4.55404241
809.992	4.55312158
810.167	4.55554803
810.342	4.56953635
810.517	4.56876679
810.692	4.56581045
810.867	4.57453779
811.042	4.57738265
811.217	4.57073677
811.392	4.57873497
811.567	4.56433495
811.741	4.56966842
811.916	4.55908997
812.091	4.58397048
812.266	4.5573625
812.441	4.53160363
812.616	4.51624432
812.79	4.49700476
812.965	4.49006565
813.14	4.4907783
813.315	4.46718416
813.489	4.46854244
813.664	4.45568093
813.839	4.4307191
814.013	4.40463723
814.188	4.38967401
814.363	4.37612307
814.537	4.40384906
814.712	4.40148049
814.887	4.40285007
815.061	4.39999181
815.236	4.38228511
815.41	4.39232212
815.585	4.38477378
815.759	4.38579326
815.934	4.40187231
816.108	4.3813602
816.283	4.38697983
816.457	4.40258778
816.631	4.42467279
816.806	4.43406399
816.98	4.43076098
817.155	4.42860883
817.329	4.42964798
817.503	4.42796843
817.678	4.46750212
817.852	4.50002429
818.026	4.50154771
818.201	4.46106244
818.375	4.44219026
818.549	4.45158834
818.723	4.43469318
818.897	4.41475174
819.072	4.40164564
819.246	4.40358309
819.42	4.39166724
819.594	4.38613585
819.768	4.4070187
819.942	4.41285249
820.116	4.37981163
820.29	4.35952313
820.465	4.34028491
820.639	4.34655459
820.813	4.32618547
820.987	4.35610678
821.161	4.37485948
821.335	4.36076967
821.509	4.33405325
821.682	4.33922836
821.856	4.35981228
822.03	4.38423104
822.204	4.35921129
822.378	4.37320536
822.552	4.39203019
822.726	4.38361598
822.9	4.38877323
823.073	4.38696312
823.247	4.36435724
823.421	4.37357153
823.595	4.37406869
823.768	4.39977548
823.942	4.3952888
824.116	4.38427658
824.289	4.35858637
824.463	4.39621536
824.637	4.35326814
824.81	4.33880822
824.984	4.35049573
825.158	4.33668144
825.331	4.31561428
825.505	4.30380033
825.678	4.30834386
825.852	4.32340302
826.025	4.3000955
826.199	4.28415647
826.372	4.30062168
826.546	4.30924701
826.719	4.27369392
826.893	4.29998571
827.066	4.26492457
827.24	4.20632081
827.413	4.17516492
827.586	4.18603198
827.76	4.20298947
827.933	4.22335362
828.106	4.2170915
828.28	4.25022169
828.453	4.23403024
828.626	4.19676142
828.799	4.21067942
828.973	4.23098206
829.146	4.23386492
829.319	4.21223489
829.492	4.18395395
829.665	4.21130491
829.839	4.26086335
830.012	4.24104003
830.185	4.20931646
830.358	4.2182062
830.531	4.22314191
830.704	4.21811121
830.877	4.25653429
831.05	4.24158178
831.223	4.22353639
831.396	4.20552796
831.569	4.18193469
831.742	4.13985239
831.915	4.11297477
832.088	4.12297858
832.261	4.14478021
832.434	4.16588922
832.607	4.16178564
832.779	4.11728633
832.952	4.11127736
833.125	4.14323453
833.298	4.1136069
833.471	4.07485113
833.643	4.08502018
833.816	4.11842127
833.989	4.10533002
834.162	4.07961992
834.334	4.10234279
834.507	4.07114709
834.68	4.09960254
834.852	4.10733412
835.025	4.1201705
835.198	4.18032097
835.37	4.20975494
835.543	4.197267
835.715	4.16544135
835.888	4.16233446
836.061	4.15961155
836.233	4.15109883
836.406	4.14066228
836.578	4.17178533
836.751	4.14720087
836.923	4.15934477
837.095	4.11586067
837.268	4.10005512
837.44	4.07249527
837.613	4.07943954
837.785	4.05339353
837.957	4.01851715
838.13	4.04273718
838.302	4.06737182
838.474	4.07560549
838.647	4.03819155
838.819	3.9971673
838.991	3.96351009
839.163	3.9717253
839.336	3.97626512
839.508	3.97684678
839.68	3.95972874
839.852	3.95389074
840.024	3.98673197
840.196	3.95752064
840.368	3.96050694
840.541	3.91777885
840.713	3.93151075
840.885	3.94396246
841.057	3.91379003
841.229	3.93028358
841.401	3.93018837
841.573	3.95436755
841.745	3.92696773
841.917	3.88054364
842.089	3.83951219
842.261	3.83687695
842.432	3.77156913
842.604	3.79074558
842.776	3.80620787
842.948	3.82816443
843.12	3.77467168
843.292	3.7911707
843.464	3.81141536
843.635	3.76906982
843.807	3.79238364
843.979	3.79575937
844.151	3.80382152
844.322	3.80815221
844.494	3.78695704
844.666	3.74162656
844.837	3.68629046
845.009	3.69840599
845.181	3.66764001
845.352	3.70770222
845.524	3.70028522
845.695	3.68856543
845.867	3.65873434
846.039	3.70668229
846.21	3.67014418
846.382	3.61674595
846.553	3.64044433
846.725	3.60089686
846.896	3.56218148
847.068	3.45635289
847.239	3.5011704
847.41	3.5021965
847.582	3.5242262
847.753	3.52241249
847.925	3.52045228
848.096	3.52769902
848.267	3.58931615
848.439	3.62066417
848.61	3.60948841
848.781	3.65962117
848.952	3.68104048
849.124	3.68189965
849.295	3.73351727
849.466	3.78909409
849.637	3.74615382
849.808	3.79346497
849.98	3.8155161
850.151	3.75891665
850.322	3.85923335
850.493	3.87029252
850.664	3.92126068
850.835	3.88465195
851.006	3.83468024
851.177	3.77154652
851.348	3.76445937
851.519	3.80293605
851.69	3.77243891
851.861	3.81028172
852.032	3.80051304
852.203	3.81426783
852.374	3.76989193
852.545	3.67873
852.716	3.70293728
852.887	3.6661285
853.057	3.64616436
853.228	3.72371826
853.399	3.65412718
853.57	3.68953287
853.741	3.71315836
853.911	3.73209831
854.082	3.69415016
854.253	3.73100427
854.424	3.75367662
854.594	3.772804
854.765	3.76521097
854.936	3.78381291
855.106	3.74511643
855.277	3.76405947
855.447	3.71600428
855.618	3.8028133
855.789	3.76093699
855.959	3.75408905
856.13	3.79511922
856.3	3.76916554
856.471	3.71856254
856.641	3.7143523
856.812	3.61454309
856.982	3.65808094
857.153	3.62718321
857.323	3.59513119
857.493	3.51762139
857.664	3.49810091
857.834	3.35833793
858.004	3.31343884
858.175	3.35745049
858.345	3.39236247
858.515	3.38802727
858.686	3.28437771
858.856	3.27665933
859.026	3.25876572
859.196	3.13420042
859.367	3.23827253
859.537	3.28816123
859.707	3.20801434
859.877	3.24071271
860.047	3.32731451
860.217	3.34006013
860.387	3.44882978
860.558	3.35958404
860.728	3.31233533
860.898	3.31240124
861.068	3.26030421
861.238	3.32372999
861.408	3.30537422
861.578	3.25233475
861.748	3.19274033
861.918	3.23076717
862.088	3.2770752
862.257	3.33463713
862.427	3.36743198
862.597	3.37990813
862.767	3.49146063
862.937	3.34601185
863.107	3.35584085
863.277	3.40146044
863.446	3.40473921
863.616	3.33244197
863.786	3.3615733
863.956	3.34259329
864.125	3.36837364
864.295	3.31494881
864.465	3.32425023
864.634	3.34121935
864.804	3.34423914
864.974	3.36840432
865.143	3.5448754
865.313	3.51502804
865.482	3.4660255
865.652	3.35307434
865.822	3.21667843
865.991	3.20495545
866.161	3.28776579
866.33	3.17579541
866.5	3.28373638
866.669	3.27688143
866.838	3.14197599
867.008	3.00487553
867.177	3.05300319
867.347	3.05040715
867.516	3.04460851
867.685	3.13934352
867.855	3.15560706
868.024	3.14822283
868.193	3.2169599
868.363	3.25827978
868.532	3.44611115
868.701	3.34996641
868.87	3.33399917
869.04	3.30727942
869.209	3.32517925
869.378	3.54911627
869.547	3.37612499
869.716	3.23550996
869.885	3.38699373
870.055	3.40177444
870.224	3.37796918
870.393	3.50743582
870.562	3.51942123
870.731	3.4423156
870.9	3.36852296
871.069	3.39430057
871.238	3.36718714
871.407	3.27653913
871.576	3.28205648
871.745	3.25570426
871.914	3.13379454
872.083	3.0854578
872.251	3.14920058
872.42	3.04123816
872.589	2.85884433
872.758	2.80529858
872.927	2.72219066
873.096	2.87792338
873.264	2.8764278
873.433	2.67365344
873.602	2.51601077
873.771	2.52446234
873.939	2.41210943
874.108	2.39940446
874.277	2.36109006
874.445	2.40425559
874.614	2.26431303
874.783	2.23954517
874.951	2.33539152
875.12	2.21963704
875.288	2.16335792
875.457	2.22940879
875.625	1.96207809
875.794	1.72245032
875.962	1.78126681
876.131	1.92515268
876.299	1.92032292
876.468	1.94172756
876.636	1.85948006
876.805	1.81877578
876.973	1.76617975
877.141	1.85704389
877.31	1.66056267
877.478	1.97117167
877.647	2.07579175
877.815	1.99212272
877.983	1.90001513
878.151	1.77805226
878.32	1.67452337
878.488	1.66203477
878.656	1.80628093
878.824	1.86084913
878.992	1.81920755
879.161	1.95906947
879.329	2.22162574
879.497	2.23781827
879.665	2.42223737
879.833	2.52497852
880.001	2.32435279
880.169	2.09648338
880.337	2.0807672
880.505	2.17363549
880.673	2.143629
880.841	2.10973225
881.009	1.84773246
881.177	1.6393158
881.345	1.7550185
881.513	1.68684118
881.681	1.65514951
881.849	1.7353233
882.017	1.80101772
882.185	1.76177111
882.352	1.4423951
882.52	1.23680091
882.688	1.19091902
882.856	1.07294841
883.024	1.10478958
883.191	0.93988954
883.359	0.75805857
883.527	0.76052659
883.694	1.02250017
883.862	0.98340107
884.03	0.57331808
884.197	0.38054559
884.365	0.62445307
884.533	0.48547851
884.7	0.5571445
884.868	0.55009458
885.035	0.52781547
885.203	0.55377609
885.37	0.46095228
885.538	0.33258509
885.705	0.1882523
885.873	0.42289157
886.04	0.42744799
886.208	0.44574695
886.375	0.18323592
886.542	-0.04730772
886.71	-0.24288514
886.877	-0.14870864
