Data from claw3_Reflection_09-44-04-831.txt Node
Date: Wed Dec 06 09:44:04 AEST 2023
User: uqkchene_local
Spectrometer: USB4E02642
Trigger mode: 4
Integration Time (sec): 1.700000E-2
Scans to average: 10
Electric dark correction enabled: true
Nonlinearity correction enabled: false
Boxcar width: 10
XAxis mode: Wavelengths
Number of Pixels in Spectrum: 3648
>>>>>Begin Spectral Data<<<<<
179.217	162.06709957
179.432	292.77108434
179.647	236.92411924
179.862	212.19806763
180.077	127.68691589
180.293	87.18689788
180.508	107.29166667
180.723	92.28723404
180.938	203.93081761
181.153	138.96336014
181.368	133.68902439
181.583	141.33064516
181.798	138.72380625
182.013	135.32140936
182.228	137.69581482
182.443	135.95780844
182.658	135.40188077
182.873	133.33724937
183.088	134.97444271
183.303	133.57590393
183.518	135.31140191
183.733	135.9670479
183.948	137.66680901
184.162	138.48827768
184.377	136.12524738
184.592	135.40166813
184.807	133.36802155
185.022	133.12251888
185.237	133.43673378
185.452	133.82268588
185.667	134.59479848
185.882	135.21439399
186.096	133.5147111
186.311	134.73327597
186.526	136.10528978
186.741	135.89235024
186.956	136.52641166
187.17	135.79158824
187.385	136.13187691
187.6	135.10272734
187.815	135.82859434
188.03	135.09922943
188.244	134.91172624
188.459	134.75446105
188.674	133.02311565
188.889	133.77562683
189.103	132.35849729
189.318	134.25925926
189.533	134.5847864
189.747	134.52588398
189.962	134.8964033
190.177	133.65426458
190.391	133.17569037
190.606	132.65220866
190.821	131.41025641
191.035	131.43468258
191.25	129.27504053
191.465	130.47832318
191.679	132.4242093
191.894	133.19378428
192.109	133.86337082
192.323	132.83805201
192.538	132.69410161
192.752	133.36608547
192.967	133.73165693
193.181	133.24473778
193.396	133.08166139
193.611	133.92125706
193.825	131.60640496
194.04	131.32179955
194.254	130.48442314
194.469	130.14967804
194.683	130.55651156
194.898	130.81093098
195.112	130.53594461
195.327	131.25299637
195.541	130.50257907
195.756	131.47678897
195.97	129.76656927
196.184	128.31952935
196.399	127.75607354
196.613	126.78734359
196.828	127.30945371
197.042	128.33794193
197.257	128.57777631
197.471	128.06024812
197.685	128.9287826
197.9	128.92623438
198.114	129.90270449
198.328	130.58802045
198.543	131.32528116
198.757	132.47905122
198.971	132.33109244
199.186	132.33043769
199.4	132.56292676
199.614	133.28993643
199.829	131.69922656
200.043	130.29432996
200.257	130.4445405
200.471	130.94392833
200.686	129.61150845
200.9	129.38977015
201.114	129.63148375
201.328	128.82230745
201.543	128.48481955
201.757	127.1484375
201.971	126.68287327
202.185	127.5051864
202.399	127.44020182
202.614	125.62744611
202.828	124.81380032
203.042	123.63266927
203.256	123.08675772
203.47	123.78133705
203.684	123.23224718
203.899	122.8101197
204.113	123.59845724
204.327	123.77106528
204.541	124.23970015
204.755	124.14549304
204.969	124.65121238
205.183	125.41491244
205.397	125.64674804
205.611	125.49766341
205.825	124.97270577
206.039	124.40583634
206.253	124.9955036
206.467	124.61900762
206.681	123.68191656
206.895	122.97001499
207.109	123.55917616
207.323	124.59411694
207.537	125.77178995
207.751	125.23654111
207.965	124.38563608
208.179	123.54688978
208.393	122.72447904
208.607	121.57220944
208.821	120.4940859
209.035	121.35480305
209.249	120.78446591
209.463	119.83282675
209.677	119.3562788
209.891	119.36564567
210.104	117.71181075
210.318	118.96116336
210.532	120.00378832
210.746	119.629272
210.96	120.21796372
211.174	120.92088461
211.387	121.98811058
211.601	121.84294777
211.815	122.2971378
212.029	121.97081368
212.243	122.26971544
212.456	122.56097561
212.67	123.5680262
212.884	124.60110371
213.098	124.71411375
213.311	125.87394705
213.525	124.80980684
213.739	126.08479179
213.953	127.02463202
214.166	126.67094349
214.38	126.17263844
214.594	127.95170215
214.807	128.56347774
215.021	126.96231867
215.235	127.88409704
215.448	126.42370042
215.662	125.54864117
215.876	125.26993606
216.089	124.94296007
216.303	123.05324212
216.516	123.23242826
216.73	123.1150969
216.944	122.52538071
217.157	122.29341778
217.371	121.59144404
217.584	120.93612857
217.798	121.13185635
218.011	121.10076538
218.225	118.92874095
218.439	118.02494371
218.652	119.20279009
218.866	118.84475349
219.079	118.00418805
219.293	116.69064537
219.506	117.29483194
219.719	116.0816913
219.933	115.19582169
220.146	115.12764723
220.36	114.35687626
220.573	114.50380587
220.787	115.61203917
221	114.85670538
221.214	114.57846459
221.427	114.73504124
221.64	114.20160493
221.854	113.88239762
222.067	114.04859586
222.28	113.5704023
222.494	113.96755922
222.707	114.33975834
222.92	114.34736174
223.134	113.8545339
223.347	113.4590959
223.56	113.64439168
223.774	112.67797681
223.987	112.72389564
224.2	112.56848723
224.414	114.12400719
224.627	113.98850774
224.84	114.26988604
225.053	113.28080147
225.267	111.87893532
225.48	111.98641814
225.693	111.90015154
225.906	110.58563567
226.119	110.49326235
226.333	109.43778927
226.546	109.05534196
226.759	110.37068171
226.972	108.91573697
227.185	109.01049194
227.398	108.10714662
227.612	107.6555339
227.825	107.64448749
228.038	107.04076851
228.251	106.74374546
228.464	105.83931317
228.677	105.74355199
228.89	105.52707344
229.103	105.41958042
229.316	105.48297307
229.529	105.5080924
229.743	105.53125
229.956	104.79539005
230.169	103.47948907
230.382	103.74077333
230.595	103.87465154
230.808	104.57384821
231.021	104.11495674
231.234	101.49295432
231.447	101.81965862
231.66	101.13691282
231.872	101.18046494
232.085	100.93011503
232.298	100.83105483
232.511	101.47044748
232.724	102.68428139
232.937	102.50421179
233.15	102.48263973
233.363	102.03021604
233.576	101.05936317
233.789	100.162544
234.002	99.93808876
234.214	99.94795197
234.427	100.01088587
234.64	100.85259061
234.853	101.09406255
235.066	100.33407304
235.279	100.4987561
235.491	100.32926017
235.704	101.82403433
235.917	101.76187482
236.13	102.18254924
236.342	101.81376577
236.555	101.85547347
236.768	101.61814244
236.981	100.86157174
237.193	99.29472287
237.406	99.64394589
237.619	98.91895085
237.832	98.74922938
238.044	99.57486618
238.257	100.09101225
238.47	100.35269808
238.682	100.15714353
238.895	99.87365388
239.108	99.5276765
239.32	99.06669513
239.533	99.42291149
239.746	98.28238823
239.958	99.29914407
240.171	98.87508315
240.383	99.07697047
240.596	99.60606493
240.808	99.88217652
241.021	99.80761059
241.234	100.39957316
241.446	100.30126221
241.659	100.82934418
241.871	100.32795037
242.084	100.46456097
242.296	99.90805828
242.509	99.57315655
242.721	98.79823263
242.934	98.75427173
243.146	98.24181675
243.359	98.42507787
243.571	98.7332774
243.784	98.817843
243.996	98.09207173
244.208	98.7596845
244.421	98.49069398
244.633	97.64984957
244.846	97.16368594
245.058	96.8370585
245.27	96.21084117
245.483	96.57482479
245.695	95.80909511
245.907	96.39767131
246.12	96.0756148
246.332	95.32769217
246.544	95.61337009
246.757	95.8558621
246.969	96.45745676
247.181	96.54078479
247.394	96.70044198
247.606	97.54982996
247.818	97.62561275
248.03	96.72232602
248.243	96.48644257
248.455	96.84866123
248.667	96.29316338
248.879	96.01990622
249.092	96.41728257
249.304	96.11608801
249.516	95.09928717
249.728	96.09639168
249.94	95.52658368
250.153	95.33700672
250.365	95.59186754
250.577	95.79869359
250.789	96.92762492
251.001	97.30562941
251.213	97.50320249
251.425	96.86304427
251.637	96.43629726
251.85	95.69329145
252.062	94.76795974
252.274	94.36887801
252.486	94.29632092
252.698	94.2728315
252.91	93.89892728
253.122	94.04185555
253.334	94.01447172
253.546	93.62929713
253.758	94.24801125
253.97	93.88507306
254.182	92.85886531
254.394	92.21093956
254.606	91.56022298
254.818	90.75570756
255.03	90.90819887
255.242	90.89278727
255.454	90.13100909
255.666	89.88538127
255.877	89.36331427
256.089	89.52780625
256.301	90.22439293
256.513	90.71250317
256.725	91.11525024
256.937	92.46111017
257.149	91.8682966
257.361	92.64002877
257.572	92.73608004
257.784	92.62407314
257.996	92.73968844
258.208	92.07227448
258.42	92.68182201
258.631	92.04659214
258.843	92.26552097
259.055	92.60236824
259.267	92.57645988
259.479	92.86711393
259.69	91.86555703
259.902	92.4488568
260.114	92.16519162
260.325	92.82529515
260.537	92.60498385
260.749	91.9880222
260.961	92.78433253
261.172	92.18173145
261.384	90.99467322
261.596	91.05270761
261.807	90.25531305
262.019	90.16743673
262.23	90.07492548
262.442	90.17929827
262.654	90.11837313
262.865	89.95343117
263.077	90.29235382
263.288	90.39865976
263.5	90.64594454
263.712	89.71023477
263.923	89.30419038
264.135	89.71030255
264.346	88.41021092
264.558	89.05427859
264.769	88.37841525
264.981	88.16864066
265.192	88.71682279
265.404	88.2733463
265.615	88.25039724
265.827	87.8226308
266.038	87.77569624
266.25	88.37611629
266.461	87.7919708
266.673	87.43588282
266.884	86.74318535
267.095	86.36766481
267.307	86.48253069
267.518	86.94580816
267.73	87.0949096
267.941	87.07559257
268.152	87.79426143
268.364	87.52794129
268.575	87.77917025
268.786	88.74432479
268.998	88.33426547
269.209	88.46494368
269.42	89.31153281
269.632	89.01438714
269.843	88.63346942
270.054	89.21043733
270.265	89.40802073
270.477	90.32279315
270.688	89.9454367
270.899	90.79863081
271.11	90.90590685
271.322	91.59923621
271.533	92.25698133
271.744	92.97436965
271.955	93.45415738
272.166	93.61244648
272.378	93.4504943
272.589	93.63751512
272.8	93.80551881
273.011	94.23018782
273.222	93.87909744
273.433	93.72273795
273.644	93.79495069
273.856	93.89816361
274.067	94.22321462
274.278	94.22437673
274.489	94.5690837
274.7	95.2763958
274.911	95.02096436
275.122	95.6173516
275.333	95.90414063
275.544	97.16896235
275.755	97.2905634
275.966	97.71189261
276.177	97.10082016
276.388	97.25602989
276.599	97.38207723
276.81	98.17563792
277.021	99.25670369
277.232	100.10239357
277.443	100.49626628
277.654	101.53714048
277.865	102.68145698
278.076	103.4329362
278.287	103.57914016
278.497	103.36328502
278.708	104.1969385
278.919	104.07162631
279.13	103.67612524
279.341	104.28771611
279.552	104.32336774
279.763	105.26373495
279.973	104.75166093
280.184	105.30239185
280.395	105.64081584
280.606	106.82811873
280.817	107.25874889
281.027	107.91409924
281.238	108.82047417
281.449	108.67631493
281.66	109.70494025
281.87	110.05542278
282.081	110.58790547
282.292	111.65172989
282.503	112.65169146
282.713	113.97995209
282.924	115.95146461
283.135	116.31877542
283.345	117.12964958
283.556	119.024099
283.767	120.0566136
283.977	121.49084281
284.188	121.88551071
284.399	123.53313494
284.609	125.41077958
284.82	127.27345574
285.03	128.35392559
285.241	129.24841148
285.451	129.26663283
285.662	129.83613017
285.873	130.1103881
286.083	129.86033908
286.294	130.19337792
286.504	131.00674441
286.715	130.23580479
286.925	130.19735918
287.136	129.67804265
287.346	129.34742435
287.557	129.31422082
287.767	129.51441753
287.978	129.37116918
288.188	129.54503357
288.399	128.37475354
288.609	127.70030484
288.819	126.90617171
289.03	125.32305268
289.24	124.27305362
289.451	122.49844693
289.661	121.29006165
289.871	121.27937624
290.082	119.81757697
290.292	119.47620285
290.502	117.97787801
290.713	116.89026451
290.923	115.39436738
291.133	114.13721627
291.344	112.7875962
291.554	112.31812503
291.764	111.17926592
291.974	110.14725961
292.185	108.43372338
292.395	107.12805203
292.605	104.89308756
292.815	103.44630824
293.026	102.09128527
293.236	100.35949305
293.446	98.52471004
293.656	96.40282441
293.866	94.62331954
294.077	92.19018597
294.287	89.68883051
294.497	87.30699629
294.707	84.57981306
294.917	82.44507126
295.127	79.56370415
295.337	77.01145831
295.548	75.07538113
295.758	72.99946975
295.968	70.37975662
296.178	68.01917236
296.388	65.77942747
296.598	63.66966223
296.808	61.69128021
297.018	59.51337152
297.228	57.62785044
297.438	55.70842298
297.648	54.04445828
297.858	52.24238436
298.068	50.44814918
298.278	48.66654752
298.488	47.63418969
298.698	46.37192106
298.908	45.15444015
299.118	44.07584375
299.328	42.88471694
299.538	42.04600472
299.748	41.2510972
299.957	40.12381831
300.167	39.01800494
300.377	38.00538569
300.587	37.07024225
300.797	36.24523184
301.007	35.61300568
301.217	34.9729008
301.426	34.32391478
301.636	33.75627034
301.846	33.2037793
302.056	32.60691772
302.266	32.04685032
302.475	31.54182466
302.685	31.21105993
302.895	30.65636324
303.105	30.27634564
303.314	29.88297457
303.524	29.45459294
303.734	29.13649574
303.944	28.7069992
304.153	28.26880047
304.363	27.93456957
304.573	27.65368046
304.782	27.42695399
304.992	27.21010748
305.202	26.909908
305.411	26.64023843
305.621	26.34341754
305.831	26.13267787
306.04	25.88525571
306.25	25.69280528
306.459	25.46690441
306.669	25.34832543
306.878	25.21208325
307.088	25.04401849
307.298	24.87348501
307.507	24.71069227
307.717	24.6130517
307.926	24.45315774
308.136	24.30254173
308.345	24.21431658
308.555	24.10314245
308.764	23.98468658
308.974	23.8572397
309.183	23.71856535
309.392	23.58062931
309.602	23.48844777
309.811	23.37425335
310.021	23.24311336
310.23	23.15169513
310.44	23.02422678
310.649	22.96652492
310.858	22.90815612
311.068	22.825681
311.277	22.76905668
311.486	22.70978528
311.696	22.63750251
311.905	22.55048412
312.114	22.46319899
312.324	22.43954618
312.533	22.36022205
312.742	22.32997194
312.952	22.24946406
313.161	22.20969823
313.37	22.16880483
313.579	22.14856731
313.789	22.12117513
313.998	22.11468668
314.207	22.08160841
314.416	22.06891857
314.625	22.05015969
314.835	22.0435076
315.044	21.97218869
315.253	21.95971173
315.462	21.91583596
315.671	21.90751082
315.88	21.86061992
316.09	21.84651636
316.299	21.84989759
316.508	21.8238402
316.717	21.77989698
316.926	21.76283612
317.135	21.72386973
317.344	21.72059465
317.553	21.7091418
317.762	21.68780991
317.971	21.68575054
318.18	21.68619168
318.389	21.68298021
318.598	21.67285651
318.807	21.68237817
319.016	21.64366267
319.225	21.61493481
319.434	21.60567966
319.643	21.56658837
319.852	21.54082114
320.061	21.50038139
320.27	21.49920108
320.479	21.43878165
320.688	21.39564252
320.897	21.3657337
321.105	21.35269122
321.314	21.34947759
321.523	21.33066661
321.732	21.32602294
321.941	21.31255393
322.15	21.3030466
322.359	21.29559559
322.567	21.26656639
322.776	21.24942042
322.985	21.24510565
323.194	21.23085788
323.403	21.23513463
323.611	21.22934487
323.82	21.22847567
324.029	21.22990401
324.237	21.25374265
324.446	21.25758468
324.655	21.2658583
324.864	21.29871515
325.072	21.29467227
325.281	21.30868833
325.49	21.31782488
325.698	21.32915268
325.907	21.34650548
326.116	21.35257158
326.324	21.35757107
326.533	21.38254255
326.741	21.39820732
326.95	21.42434842
327.159	21.42151216
327.367	21.43362953
327.576	21.44944175
327.784	21.46906238
327.993	21.50244051
328.201	21.52780563
328.41	21.55777805
328.618	21.56622874
328.827	21.57921799
329.035	21.58827144
329.244	21.61477263
329.452	21.6555545
329.661	21.67281763
329.869	21.69181492
330.078	21.69446919
330.286	21.71072713
330.495	21.73619762
330.703	21.75532515
330.911	21.77526276
331.12	21.78215445
331.328	21.81180728
331.537	21.83915487
331.745	21.84652154
331.953	21.86797378
332.162	21.8966703
332.37	21.92091618
332.578	21.94463996
332.787	21.95852705
332.995	21.98727645
333.203	22.01361808
333.411	22.02680703
333.62	22.04329694
333.828	22.05761412
334.036	22.07782493
334.244	22.12137751
334.453	22.15910586
334.661	22.1885658
334.869	22.21605799
335.077	22.24159989
335.285	22.27576129
335.494	22.31259211
335.702	22.30787414
335.91	22.33409101
336.118	22.37833622
336.326	22.40373657
336.534	22.42216952
336.742	22.43064129
336.951	22.47264751
337.159	22.48918067
337.367	22.51001242
337.575	22.54099497
337.783	22.57327801
337.991	22.5796014
338.199	22.61332768
338.407	22.65610814
338.615	22.66982743
338.823	22.7062399
339.031	22.71490716
339.239	22.74244838
339.447	22.76732533
339.655	22.77270538
339.863	22.79041631
340.071	22.84124516
340.279	22.85726074
340.487	22.87560422
340.695	22.89861014
340.903	22.91784729
341.11	22.95270055
341.318	22.9583939
341.526	22.98753977
341.734	23.00056467
341.942	23.02507246
342.15	23.04421242
342.358	23.08165052
342.565	23.09308417
342.773	23.10243363
342.981	23.11025024
343.189	23.13841191
343.397	23.16822703
343.604	23.17721224
343.812	23.20300902
344.02	23.23211055
344.228	23.24980648
344.435	23.2689903
344.643	23.29218217
344.851	23.31089455
345.058	23.33197384
345.266	23.35996758
345.474	23.36924669
345.681	23.3702075
345.889	23.39001556
346.097	23.42142495
346.304	23.44375782
346.512	23.45339625
346.72	23.46700158
346.927	23.49585616
347.135	23.51417314
347.342	23.53727027
347.55	23.55860944
347.758	23.57611509
347.965	23.62120386
348.173	23.64494981
348.38	23.67646589
348.588	23.6808757
348.795	23.69655833
349.003	23.73481052
349.21	23.75725123
349.418	23.78169981
349.625	23.80561969
349.833	23.85617671
350.04	23.89254792
350.247	23.91290931
350.455	23.94971189
350.662	23.96728321
350.87	24.01507394
351.077	24.05778106
351.284	24.07546616
351.492	24.10878532
351.699	24.1478743
351.906	24.16192428
352.114	24.20348774
352.321	24.23381406
352.528	24.2653281
352.736	24.28675366
352.943	24.34671766
353.15	24.36468429
353.358	24.36950085
353.565	24.40556738
353.772	24.43212768
353.979	24.45170348
354.187	24.46226706
354.394	24.49579056
354.601	24.54373292
354.808	24.56739664
355.015	24.59860296
355.223	24.61318801
355.43	24.64186412
355.637	24.67366616
355.844	24.69400775
356.051	24.70730657
356.258	24.72775251
356.465	24.74362747
356.673	24.73801512
356.88	24.74905866
357.087	24.76889652
357.294	24.78383346
357.501	24.80505401
357.708	24.84354357
357.915	24.85009007
358.122	24.86819134
358.329	24.88512615
358.536	24.89745862
358.743	24.91875805
358.95	24.92399653
359.157	24.93199795
359.364	24.93460829
359.571	24.9482848
359.778	24.95523733
359.985	24.97941364
360.192	24.99038157
360.399	25.00398695
360.606	25.03501536
360.812	25.04227426
361.019	25.07758366
361.226	25.08797593
361.433	25.09620579
361.64	25.1048992
361.847	25.14316234
362.054	25.14791004
362.26	25.16189582
362.467	25.17510455
362.674	25.19000155
362.881	25.20841947
363.088	25.20998478
363.294	25.22100839
363.501	25.2326271
363.708	25.2428573
363.915	25.26676168
364.121	25.28762457
364.328	25.28953548
364.535	25.31181802
364.741	25.33439688
364.948	25.33619231
365.155	25.36582499
365.361	25.37067049
365.568	25.38718458
365.775	25.41829359
365.981	25.44830289
366.188	25.44778469
366.395	25.48874849
366.601	25.51409319
366.808	25.54553984
367.014	25.56253089
367.221	25.58373622
367.427	25.60087483
367.634	25.63409314
367.84	25.65519025
368.047	25.69466625
368.254	25.7079287
368.46	25.72117552
368.667	25.73832682
368.873	25.76642541
369.079	25.79166729
369.286	25.80953583
369.492	25.82176149
369.699	25.85264583
369.905	25.87486486
370.112	25.89581119
370.318	25.92235805
370.524	25.94255239
370.731	25.94255509
370.937	25.97530615
371.144	25.9877068
371.35	26.01924714
371.556	26.04444373
371.763	26.08428476
371.969	26.10434493
372.175	26.126321
372.381	26.13483014
372.588	26.15668236
372.794	26.18853387
373	26.21583163
373.206	26.23780192
373.413	26.25297795
373.619	26.27789825
373.825	26.29920386
374.031	26.32099485
374.238	26.34379459
374.444	26.35277557
374.65	26.3601019
374.856	26.39155033
375.062	26.40945461
375.268	26.42573777
375.475	26.44177437
375.681	26.44875657
375.887	26.46527427
376.093	26.47664824
376.299	26.47384628
376.505	26.50560554
376.711	26.53560879
376.917	26.54436739
377.123	26.54650934
377.329	26.56708113
377.535	26.56407026
377.741	26.57507825
377.947	26.58858264
378.153	26.61659009
378.359	26.62463809
378.565	26.65693547
378.771	26.68124774
378.977	26.70587481
379.183	26.71583882
379.389	26.75510597
379.595	26.77027549
379.801	26.78845057
380.007	26.82569088
380.213	26.85511932
380.418	26.87962116
380.624	26.9169624
380.83	26.93700954
381.036	26.95646355
381.242	26.99780156
381.448	27.03143824
381.653	27.04678912
381.859	27.08271365
382.065	27.11462897
382.271	27.13778911
382.476	27.16085856
382.682	27.17092535
382.888	27.18606795
383.094	27.21540804
383.299	27.23489389
383.505	27.25985114
383.711	27.27630139
383.916	27.28421818
384.122	27.31741352
384.328	27.33030593
384.533	27.3320167
384.739	27.34372516
384.945	27.36211581
385.15	27.38722817
385.356	27.41003063
385.562	27.4430282
385.767	27.46254661
385.973	27.50078878
386.178	27.51887624
386.384	27.54042211
386.589	27.56385736
386.795	27.57347533
387	27.61316979
387.206	27.62936342
387.411	27.63177941
387.617	27.65902858
387.822	27.66839175
388.028	27.68591359
388.233	27.72398088
388.439	27.74544249
388.644	27.77517674
388.85	27.80902721
389.055	27.8447215
389.26	27.86300081
389.466	27.87072553
389.671	27.89790007
389.877	27.90747084
390.082	27.93990316
390.287	27.95083015
390.493	27.98536309
390.698	28.0098036
390.903	28.03229984
391.109	28.06761137
391.314	28.1007805
391.519	28.14152291
391.724	28.17771306
391.93	28.18975729
392.135	28.22503592
392.34	28.25436348
392.545	28.25948019
392.751	28.27309766
392.956	28.28230518
393.161	28.30805004
393.366	28.31662932
393.571	28.34226045
393.776	28.36521298
393.982	28.3826951
394.187	28.40574169
394.392	28.42983862
394.597	28.45631917
394.802	28.46571982
395.007	28.47810245
395.212	28.5015968
395.417	28.5098852
395.622	28.51655246
395.827	28.5244192
396.032	28.53450574
396.237	28.55064467
396.442	28.56405295
396.647	28.57634396
396.852	28.60670309
397.057	28.62876366
397.262	28.65614681
397.467	28.66925859
397.672	28.6793239
397.877	28.69784606
398.082	28.71051249
398.287	28.72645324
398.492	28.73934387
398.697	28.74228487
398.902	28.75798383
399.107	28.78312225
399.311	28.79622069
399.516	28.8041256
399.721	28.83242153
399.926	28.85168894
400.131	28.87062511
400.336	28.89372834
400.54	28.91593157
400.745	28.93292766
400.95	28.94338526
401.155	28.95562852
401.359	28.96932448
401.564	28.97520372
401.769	28.9899653
401.974	29.02156921
402.178	29.0435621
402.383	29.07547948
402.588	29.088514
402.792	29.10269189
402.997	29.11884021
403.202	29.14339247
403.406	29.15082201
403.611	29.17847487
403.815	29.20293552
404.02	29.21407701
404.225	29.23298412
404.429	29.25299746
404.634	29.27426561
404.838	29.28754475
405.043	29.31005509
405.247	29.33343025
405.452	29.35208767
405.656	29.36830439
405.861	29.40253037
406.065	29.43075897
406.27	29.4493175
406.474	29.46425315
406.679	29.4746972
406.883	29.50253894
407.088	29.53354747
407.292	29.5564604
407.497	29.57445848
407.701	29.59081579
407.905	29.6037693
408.11	29.62292664
408.314	29.6514494
408.518	29.66820356
408.723	29.68407625
408.927	29.69484582
409.131	29.72680632
409.336	29.75085613
409.54	29.76801518
409.744	29.78583488
409.949	29.80183956
410.153	29.81275294
410.357	29.82946642
410.561	29.84762122
410.766	29.85745746
410.97	29.87516201
411.174	29.88989155
411.378	29.90622946
411.582	29.93028074
411.787	29.9396575
411.991	29.96964256
412.195	29.99164253
412.399	30.02159102
412.603	30.0392456
412.807	30.05485937
413.011	30.06255307
413.215	30.08170515
413.419	30.08799665
413.624	30.09668086
413.828	30.12602729
414.032	30.14570586
414.236	30.1766116
414.44	30.18927398
414.644	30.19587364
414.848	30.21232523
415.052	30.23723728
415.256	30.2674474
415.46	30.28749253
415.664	30.2937498
415.868	30.3038272
416.072	30.33118235
416.275	30.34741917
416.479	30.36927501
416.683	30.36532656
416.887	30.38019342
417.091	30.3922842
417.295	30.42052439
417.499	30.43287702
417.703	30.45188785
417.906	30.46482079
418.11	30.4635061
418.314	30.47605398
418.518	30.48627263
418.722	30.50924324
418.925	30.53788246
419.129	30.55946658
419.333	30.57538346
419.537	30.58161483
419.74	30.60496364
419.944	30.62513878
420.148	30.64319637
420.352	30.6593524
420.555	30.67176423
420.759	30.70021877
420.963	30.73934085
421.166	30.74524792
421.37	30.76899352
421.573	30.79235407
421.777	30.80685892
421.981	30.82078484
422.184	30.84735975
422.388	30.87612841
422.591	30.90084731
422.795	30.93013763
422.999	30.95163434
423.202	30.96189361
423.406	30.99890984
423.609	31.02136603
423.813	31.04372168
424.016	31.05859373
424.22	31.08609327
424.423	31.1041472
424.627	31.12063219
424.83	31.14088059
425.033	31.15425867
425.237	31.15953614
425.44	31.19647347
425.644	31.21900006
425.847	31.23527737
426.05	31.26382145
426.254	31.28653386
426.457	31.29679596
426.66	31.31563434
426.864	31.3468228
427.067	31.35263325
427.27	31.36614003
427.474	31.3953803
427.677	31.39543091
427.88	31.42229923
428.084	31.43063062
428.287	31.44835336
428.49	31.46559519
428.693	31.49463525
428.896	31.52061802
429.1	31.56392108
429.303	31.5725581
429.506	31.6041798
429.709	31.60917938
429.912	31.62779485
430.116	31.64607915
430.319	31.68206179
430.522	31.70793349
430.725	31.73558655
430.928	31.75901047
431.131	31.77287154
431.334	31.79925018
431.537	31.82941059
431.74	31.85428269
431.943	31.87684964
432.146	31.89733073
432.349	31.93011341
432.552	31.94517636
432.755	31.9697774
432.958	31.99171381
433.161	32.0077703
433.364	32.0193917
433.567	32.04585299
433.77	32.06193456
433.973	32.09271175
434.176	32.11992061
434.379	32.15874078
434.582	32.17688839
434.785	32.19623505
434.988	32.21852718
435.19	32.23633251
435.393	32.25147329
435.596	32.27207905
435.799	32.29738472
436.002	32.3114444
436.205	32.34323741
436.407	32.36101725
436.61	32.38609329
436.813	32.4064024
437.016	32.4282193
437.218	32.44142786
437.421	32.46151909
437.624	32.47415403
437.827	32.49693785
438.029	32.5147044
438.232	32.54066107
438.435	32.55803883
438.637	32.56977705
438.84	32.58115277
439.043	32.60956063
439.245	32.62613758
439.448	32.65774903
439.65	32.69117863
439.853	32.70074199
440.056	32.69876985
440.258	32.71512478
440.461	32.73585747
440.663	32.75987518
440.866	32.77366763
441.068	32.79434015
441.271	32.80995553
441.473	32.82294465
441.676	32.84426908
441.878	32.86550174
442.081	32.88759712
442.283	32.91068413
442.486	32.92774009
442.688	32.93740402
442.89	32.95330918
443.093	32.9749454
443.295	32.97957676
443.498	32.99100303
443.7	33.00567856
443.902	33.01368786
444.105	33.04074652
444.307	33.06495997
444.509	33.08580874
444.712	33.08996251
444.914	33.10611059
445.116	33.12520424
445.319	33.13457762
445.521	33.15030467
445.723	33.17656669
445.925	33.19167079
446.128	33.19637798
446.33	33.20176324
446.532	33.20818707
446.734	33.21063895
446.936	33.23863448
447.139	33.25976222
447.341	33.25902334
447.543	33.29347849
447.745	33.3116712
447.947	33.30683093
448.149	33.323332
448.351	33.3408255
448.553	33.36378867
448.755	33.36994928
448.958	33.37745982
449.16	33.38307116
449.362	33.38620407
449.564	33.40651993
449.766	33.41701362
449.968	33.42265831
450.17	33.42694098
450.372	33.42589621
450.574	33.43205624
450.776	33.45768651
450.978	33.47116895
451.179	33.47293585
451.381	33.47829487
451.583	33.50115926
451.785	33.49743996
451.987	33.51392625
452.189	33.53796134
452.391	33.54816895
452.593	33.55636086
452.795	33.56182473
452.996	33.58294528
453.198	33.6013803
453.4	33.60895842
453.602	33.62418693
453.804	33.64421984
454.005	33.64690232
454.207	33.65647825
454.409	33.67050229
454.611	33.68822877
454.812	33.69678093
455.014	33.69292169
455.216	33.70848225
455.417	33.70966548
455.619	33.71268263
455.821	33.71026403
456.022	33.71038491
456.224	33.71334238
456.426	33.72378679
456.627	33.73672187
456.829	33.73694082
457.031	33.74019664
457.232	33.74023874
457.434	33.74000906
457.635	33.75736336
457.837	33.76351713
458.038	33.76195241
458.24	33.76358967
458.441	33.77643822
458.643	33.78059786
458.844	33.78748337
459.046	33.81169041
459.247	33.83366204
459.449	33.84454353
459.65	33.86634142
459.852	33.87047961
460.053	33.90020212
460.254	33.91364392
460.456	33.93068721
460.657	33.93488955
460.859	33.93180543
461.06	33.95406948
461.261	33.97294284
461.463	33.98794541
461.664	34.00184099
461.865	34.01070684
462.066	34.0187989
462.268	34.01929226
462.469	34.04042989
462.67	34.05495938
462.872	34.06540091
463.073	34.08386026
463.274	34.08595704
463.475	34.08299067
463.676	34.08571788
463.878	34.08888163
464.079	34.09957065
464.28	34.10683596
464.481	34.11059939
464.682	34.11323301
464.883	34.1241684
465.085	34.13459424
465.286	34.13530954
465.487	34.148723
465.688	34.15635105
465.889	34.16715566
466.09	34.16768357
466.291	34.17780831
466.492	34.19723069
466.693	34.20732451
466.894	34.2159328
467.095	34.22486961
467.296	34.23765799
467.497	34.24586226
467.698	34.2519756
467.899	34.25158626
468.1	34.26116215
468.301	34.2701623
468.502	34.26261081
468.703	34.2785447
468.903	34.28174405
469.104	34.29125842
469.305	34.29514594
469.506	34.30811472
469.707	34.29708482
469.908	34.30177673
470.109	34.30968102
470.309	34.32089997
470.51	34.3166838
470.711	34.31048217
470.912	34.31673297
471.112	34.3205941
471.313	34.33275232
471.514	34.3424011
471.715	34.36047817
471.915	34.36481124
472.116	34.37939203
472.317	34.38654145
472.517	34.38912079
472.718	34.40225623
472.919	34.41005256
473.119	34.42612902
473.32	34.43997221
473.521	34.45291843
473.721	34.46606537
473.922	34.48115775
474.122	34.50602027
474.323	34.50969998
474.523	34.52131737
474.724	34.53772151
474.925	34.55303282
475.125	34.55797299
475.326	34.57221538
475.526	34.5732643
475.727	34.57845723
475.927	34.57725358
476.127	34.58980687
476.328	34.60672493
476.528	34.6150152
476.729	34.63159543
476.929	34.6522628
477.13	34.66139933
477.33	34.67009287
477.53	34.66382324
477.731	34.67716244
477.931	34.68390044
478.131	34.70222575
478.332	34.70105361
478.532	34.71308159
478.732	34.7088561
478.933	34.73074821
479.133	34.74528471
479.333	34.751387
479.533	34.7549852
479.734	34.76023723
479.934	34.76524102
480.134	34.78230929
480.334	34.79689392
480.534	34.79955255
480.735	34.81419139
480.935	34.81694421
481.135	34.81294393
481.335	34.81819005
481.535	34.82363523
481.735	34.83905913
481.935	34.84128712
482.136	34.84173605
482.336	34.83725943
482.536	34.8456624
482.736	34.8564265
482.936	34.8694879
483.136	34.85392988
483.336	34.86538226
483.536	34.88221442
483.736	34.88332892
483.936	34.90144036
484.136	34.9022353
484.336	34.90660658
484.536	34.90945543
484.736	34.91705089
484.936	34.91662188
485.135	34.92931393
485.335	34.94128236
485.535	34.94642946
485.735	34.95903635
485.935	34.96998585
486.135	34.98124966
486.335	34.99480341
486.534	35.01104975
486.734	35.00862067
486.934	35.01658476
487.134	35.03251544
487.334	35.05576932
487.533	35.05945881
487.733	35.06254894
487.933	35.08346057
488.133	35.08493885
488.332	35.09641064
488.532	35.10502668
488.732	35.11686577
488.931	35.1245133
489.131	35.13914381
489.331	35.14928684
489.53	35.16065752
489.73	35.17736483
489.93	35.18555331
490.129	35.20357725
490.329	35.20683661
490.528	35.21718168
490.728	35.2208529
490.928	35.23857824
491.127	35.23820781
491.327	35.25110888
491.526	35.26009197
491.726	35.26504739
491.925	35.27631036
492.125	35.26913466
492.324	35.28233116
492.524	35.29007464
492.723	35.29341431
492.922	35.29427792
493.122	35.2978801
493.321	35.30734855
493.521	35.31596673
493.72	35.31994093
493.919	35.33233435
494.119	35.33543943
494.318	35.32638187
494.517	35.33690132
494.717	35.33923269
494.916	35.34932609
495.115	35.34694019
495.315	35.35515511
495.514	35.35537727
495.713	35.36024078
495.912	35.36563783
496.112	35.36996451
496.311	35.38172542
496.51	35.39407611
496.709	35.41105261
496.908	35.41732827
497.108	35.42806428
497.307	35.43781899
497.506	35.44155488
497.705	35.44353459
497.904	35.4563831
498.103	35.45396647
498.302	35.46196721
498.501	35.47157116
498.701	35.47948748
498.9	35.49345121
499.099	35.49989554
499.298	35.50967655
499.497	35.52356602
499.696	35.52767069
499.895	35.54052604
500.094	35.55594867
500.293	35.56294385
500.492	35.57137199
500.691	35.58216333
500.89	35.57939065
501.088	35.59186475
501.287	35.59756697
501.486	35.61031538
501.685	35.61527958
501.884	35.63353038
502.083	35.64146984
502.282	35.6449435
502.481	35.66394356
502.679	35.66718354
502.878	35.67591268
503.077	35.67568114
503.276	35.693049
503.475	35.71068091
503.673	35.72361776
503.872	35.73488638
504.071	35.73802975
504.27	35.75201435
504.468	35.76527903
504.667	35.78546186
504.866	35.78094071
505.064	35.80358962
505.263	35.8097523
505.462	35.82373689
505.66	35.82947866
505.859	35.84569643
506.058	35.8458611
506.256	35.85348894
506.455	35.86142495
506.653	35.8685348
506.852	35.89090811
507.05	35.89735728
507.249	35.90417182
507.448	35.90799918
507.646	35.91286784
507.845	35.91398335
508.043	35.91932467
508.242	35.93016872
508.44	35.92522527
508.638	35.9335925
508.837	35.93242274
509.035	35.95374758
509.234	35.95423018
509.432	35.96640481
509.631	35.98305696
509.829	35.98445047
510.027	35.98793965
510.226	35.98970289
510.424	35.99301495
510.622	36.01458458
510.821	36.0212588
511.019	36.02820036
511.217	36.0439656
511.415	36.06466736
511.614	36.06900869
511.812	36.07888797
512.01	36.08610661
512.208	36.10075682
512.407	36.10905701
512.605	36.11603287
512.803	36.13474076
513.001	36.15397808
513.199	36.1593832
513.398	36.17419775
513.596	36.17775873
513.794	36.18019778
513.992	36.20873069
514.19	36.21776913
514.388	36.23337684
514.586	36.24807736
514.784	36.25539632
514.982	36.26067706
515.18	36.27202743
515.378	36.27739064
515.576	36.28990059
515.774	36.30205584
515.972	36.31299829
516.17	36.33788176
516.368	36.35549496
516.566	36.36643991
516.764	36.38985043
516.962	36.39686158
517.16	36.40887232
517.358	36.41822718
517.556	36.42994723
517.754	36.45453215
517.952	36.47419758
518.149	36.48747004
518.347	36.50220289
518.545	36.52214984
518.743	36.53013578
518.941	36.54056306
519.138	36.56008939
519.336	36.57273065
519.534	36.5883596
519.732	36.60211991
519.929	36.62347228
520.127	36.63103116
520.325	36.63338004
520.523	36.63558689
520.72	36.65171824
520.918	36.66386975
521.116	36.67812689
521.313	36.68400319
521.511	36.7056724
521.709	36.72345888
521.906	36.7303483
522.104	36.7340869
522.301	36.73313943
522.499	36.75617985
522.696	36.77100915
522.894	36.78273393
523.092	36.79784984
523.289	36.80987659
523.487	36.82263477
523.684	36.83472589
523.882	36.84396951
524.079	36.8421689
524.276	36.86062409
524.474	36.88350312
524.671	36.90577587
524.869	36.9255396
525.066	36.94327696
525.264	36.9533794
525.461	36.97306612
525.658	36.98097249
525.856	36.98386006
526.053	36.99249222
526.25	37.01159186
526.448	37.02416517
526.645	37.02735204
526.842	37.03714906
527.039	37.05496652
527.237	37.07254604
527.434	37.07695592
527.631	37.09177542
527.828	37.09991929
528.026	37.10097589
528.223	37.12252214
528.42	37.12704854
528.617	37.12769549
528.814	37.13179086
529.012	37.13115547
529.209	37.13620655
529.406	37.14912505
529.603	37.14925266
529.8	37.15761746
529.997	37.16693847
530.194	37.18702809
530.391	37.19213152
530.588	37.20533304
530.785	37.21692362
530.982	37.23178373
531.179	37.23886347
531.376	37.23802317
531.573	37.25646917
531.77	37.27248698
531.967	37.29117358
532.164	37.30717833
532.361	37.30940244
532.558	37.32249754
532.755	37.33588574
532.952	37.3430042
533.149	37.35547544
533.346	37.36973166
533.543	37.37165768
533.739	37.38317129
533.936	37.38620155
534.133	37.40120834
534.33	37.40681191
534.527	37.42026736
534.723	37.4334241
534.92	37.43696766
535.117	37.44373233
535.314	37.45231359
535.51	37.46256648
535.707	37.46744051
535.904	37.46815057
536.1	37.46915766
536.297	37.48744109
536.494	37.49852698
536.69	37.51143541
536.887	37.5137906
537.084	37.52051133
537.28	37.53571752
537.477	37.53178378
537.674	37.54061322
537.87	37.55231346
538.067	37.56508577
538.263	37.57586637
538.46	37.57428987
538.656	37.58293273
538.853	37.58434082
539.049	37.59471994
539.246	37.5977915
539.442	37.60880975
539.639	37.62219382
539.835	37.62726929
540.032	37.63413592
540.228	37.64724414
540.424	37.65020302
540.621	37.65538337
540.817	37.66471132
541.014	37.68040751
541.21	37.69405478
541.406	37.69511106
541.603	37.71756526
541.799	37.72918744
541.995	37.74027511
542.191	37.75706462
542.388	37.76970134
542.584	37.78283721
542.78	37.79324982
542.976	37.79981469
543.173	37.81381382
543.369	37.81329409
543.565	37.81694338
543.761	37.82634131
543.957	37.83639157
544.154	37.84207141
544.35	37.85931248
544.546	37.86175539
544.742	37.88276727
544.938	37.88700431
545.134	37.88562874
545.33	37.89577245
545.526	37.90295859
545.722	37.90646933
545.919	37.91806358
546.115	37.91756525
546.311	37.90596763
546.507	37.90249986
546.703	37.9109662
546.899	37.91327955
547.095	37.92506691
547.29	37.92530988
547.486	37.94304663
547.682	37.95392598
547.878	37.96005657
548.074	37.96214936
548.27	37.98294938
548.466	37.97959669
548.662	37.98400815
548.858	37.98931593
549.053	38.00327751
549.249	38.00942481
549.445	38.006622
549.641	38.00849451
549.837	38.01364164
550.032	38.01426344
550.228	38.02631485
550.424	38.04601106
550.62	38.05962976
550.815	38.07267379
551.011	38.07620662
551.207	38.0934584
551.402	38.10547662
551.598	38.11094961
551.794	38.11510637
551.989	38.11520394
552.185	38.12135039
552.381	38.10729735
552.576	38.10796597
552.772	38.12135442
552.967	38.1220855
553.163	38.12340529
553.359	38.14676587
553.554	38.16069608
553.75	38.17781705
553.945	38.18110154
554.141	38.18891297
554.336	38.19478195
554.532	38.1987869
554.727	38.20011226
554.922	38.19466829
555.118	38.19964786
555.313	38.19238218
555.509	38.2007068
555.704	38.20345431
555.899	38.2162389
556.095	38.23140393
556.29	38.24317929
556.486	38.26297473
556.681	38.27938279
556.876	38.2750272
557.071	38.28047417
557.267	38.29739405
557.462	38.29001744
557.657	38.28991296
557.853	38.28779315
558.048	38.29504956
558.243	38.30005554
558.438	38.31269843
558.633	38.31974253
558.829	38.33712962
559.024	38.34434148
559.219	38.35229213
559.414	38.37407781
559.609	38.38441329
559.804	38.40007651
559.999	38.40384371
560.194	38.41328014
560.39	38.42515114
560.585	38.43179742
560.78	38.44966367
560.975	38.46757806
561.17	38.49214536
561.365	38.49836856
561.56	38.52246193
561.755	38.5451453
561.95	38.56260685
562.145	38.57789846
562.34	38.59355422
562.535	38.6035995
562.729	38.62057045
562.924	38.62654975
563.119	38.64909433
563.314	38.68192542
563.509	38.68540197
563.704	38.69002116
563.899	38.71038108
564.093	38.7202931
564.288	38.72667709
564.483	38.74392525
564.678	38.75514268
564.873	38.76043246
565.067	38.7859001
565.262	38.79721377
565.457	38.80248798
565.652	38.81647467
565.846	38.83220411
566.041	38.84550711
566.236	38.86146718
566.43	38.88485562
566.625	38.90065414
566.82	38.92245777
567.014	38.93690184
567.209	38.95099369
567.404	38.95248175
567.598	38.96996889
567.793	38.98256564
567.987	38.99017945
568.182	39.01253894
568.376	39.02825236
568.571	39.03460785
568.765	39.05941148
568.96	39.08000388
569.154	39.09064808
569.349	39.09360045
569.543	39.11570582
569.738	39.12011626
569.932	39.13254199
570.127	39.14955834
570.321	39.16599212
570.515	39.16751387
570.71	39.16706973
570.904	39.16497913
571.098	39.18687619
571.293	39.20031305
571.487	39.20239087
571.681	39.20426846
571.876	39.22204287
572.07	39.23286363
572.264	39.25136616
572.458	39.26121135
572.653	39.27265514
572.847	39.2860325
573.041	39.29816371
573.235	39.30763031
573.43	39.31293498
573.624	39.33658467
573.818	39.3555689
574.012	39.36428241
574.206	39.37567709
574.4	39.37889124
574.594	39.3984481
574.788	39.4231245
574.983	39.44120172
575.177	39.45426795
575.371	39.47025141
575.565	39.49300641
575.759	39.52207847
575.953	39.5311528
576.147	39.55303476
576.341	39.5688402
576.535	39.59825438
576.729	39.62026809
576.923	39.62419886
577.117	39.63818071
577.31	39.6558219
577.504	39.67620816
577.698	39.67909978
577.892	39.69027726
578.086	39.7038877
578.28	39.72054735
578.474	39.73745515
578.668	39.75850792
578.861	39.78944883
579.055	39.80941769
579.249	39.81964505
579.443	39.83074851
579.636	39.84837574
579.83	39.85777091
580.024	39.89012894
580.218	39.90578493
580.411	39.90897876
580.605	39.91328394
580.799	39.92553681
580.992	39.93869235
581.186	39.94159774
581.38	39.94961245
581.573	39.97237741
581.767	39.98043839
581.961	39.99448223
582.154	40.0224142
582.348	40.02563787
582.541	40.04045785
582.735	40.05386394
582.928	40.05513185
583.122	40.06956539
583.315	40.09110269
583.509	40.09607015
583.702	40.10633558
583.896	40.12180547
584.089	40.13067791
584.283	40.1393487
584.476	40.15536376
584.67	40.16862353
584.863	40.19872519
585.056	40.22471999
585.25	40.2458862
585.443	40.26407276
585.636	40.28354893
585.83	40.30823924
586.023	40.3251971
586.216	40.32905004
586.41	40.36158893
586.603	40.38333748
586.796	40.38563376
586.989	40.40108986
587.183	40.41342732
587.376	40.4210548
587.569	40.45282085
587.762	40.47773
587.955	40.5017794
588.149	40.5106315
588.342	40.51879428
588.535	40.53500195
588.728	40.56148731
588.921	40.5616068
589.114	40.57642259
589.307	40.60148995
589.5	40.61931895
589.693	40.63026773
589.886	40.65019469
590.08	40.66495951
590.273	40.68959519
590.466	40.70540709
590.659	40.71955941
590.852	40.74461497
591.044	40.76155286
591.237	40.7738481
591.43	40.7877105
591.623	40.79455268
591.816	40.80569005
592.009	40.81237651
592.202	40.84190293
592.395	40.85666872
592.588	40.87808798
592.781	40.90046233
592.973	40.91644895
593.166	40.9308176
593.359	40.95254699
593.552	40.96803074
593.745	40.98417715
593.937	40.98481011
594.13	40.99136519
594.323	41.00214939
594.515	41.0188268
594.708	41.03530639
594.901	41.04705175
595.094	41.06458743
595.286	41.09447514
595.479	41.11159733
595.672	41.13242147
595.864	41.15675994
596.057	41.17934092
596.249	41.19533066
596.442	41.21494635
596.635	41.23684742
596.827	41.23619355
597.02	41.26013599
597.212	41.27215081
597.405	41.28385324
597.597	41.30647707
597.79	41.32350232
597.982	41.34988369
598.175	41.38106574
598.367	41.40353606
598.559	41.4144048
598.752	41.42525669
598.944	41.45137659
599.137	41.46313947
599.329	41.47946445
599.521	41.49483008
599.714	41.50525399
599.906	41.51095699
600.098	41.53475937
600.291	41.53887033
600.483	41.54867127
600.675	41.55639655
600.868	41.58320315
601.06	41.59887229
601.252	41.60902715
601.444	41.60988272
601.637	41.62230579
601.829	41.6181449
602.021	41.64251039
602.213	41.64781789
602.405	41.64462135
602.597	41.64939775
602.789	41.67024318
602.982	41.6673512
603.174	41.68242434
603.366	41.69234111
603.558	41.69514649
603.75	41.71303012
603.942	41.71925337
604.134	41.72407411
604.326	41.73648866
604.518	41.73854523
604.71	41.74861029
604.902	41.7560269
605.094	41.76579555
605.286	41.77577477
605.478	41.79096905
605.67	41.79026587
605.862	41.81690001
606.054	41.81366809
606.246	41.83895204
606.437	41.84454703
606.629	41.86620333
606.821	41.87554448
607.013	41.89961045
607.205	41.90642725
607.397	41.91359497
607.588	41.93162749
607.78	41.94121514
607.972	41.95933362
608.164	41.96733591
608.355	41.98338282
608.547	42.01721371
608.739	42.03637771
608.93	42.04684381
609.122	42.05520206
609.314	42.07113697
609.505	42.0654723
609.697	42.0840848
609.889	42.08765627
610.08	42.102362
610.272	42.1079065
610.463	42.1372433
610.655	42.15213087
610.847	42.15759305
611.038	42.16769166
611.23	42.18162675
611.421	42.18069178
611.613	42.19212425
611.804	42.19138739
611.996	42.20939936
612.187	42.2068909
612.379	42.21701166
612.57	42.20855794
612.761	42.20797953
612.953	42.21800724
613.144	42.21943209
613.336	42.2170231
613.527	42.23974336
613.718	42.22923325
613.91	42.24908436
614.101	42.27210181
614.292	42.28632359
614.483	42.29370768
614.675	42.29076391
614.866	42.30806814
615.057	42.31658129
615.248	42.31870023
615.44	42.33743044
615.631	42.34105292
615.822	42.36129453
616.013	42.35865175
616.204	42.37633577
616.396	42.37705612
616.587	42.38954082
616.778	42.40492842
616.969	42.41564628
617.16	42.41395105
617.351	42.43294638
617.542	42.44462686
617.733	42.46995609
617.924	42.47208799
618.115	42.4602341
618.306	42.45947036
618.497	42.45747405
618.688	42.46877879
618.879	42.46977673
619.07	42.47413674
619.261	42.48735621
619.452	42.49248164
619.643	42.49775722
619.834	42.50281005
620.025	42.51626865
620.216	42.51617405
620.407	42.51549243
620.597	42.52287344
620.788	42.52458249
620.979	42.5241187
621.17	42.53083982
621.361	42.52833832
621.551	42.52210484
621.742	42.51754836
621.933	42.51578296
622.124	42.51545299
622.314	42.51851091
622.505	42.5257103
622.696	42.53086366
622.886	42.5296633
623.077	42.52878731
623.268	42.5379485
623.458	42.54168434
623.649	42.54943915
623.84	42.56357308
624.03	42.57811049
624.221	42.58615099
624.411	42.59788162
624.602	42.62241923
624.792	42.61582833
624.983	42.62159819
625.173	42.64408407
625.364	42.66961384
625.554	42.68502258
625.745	42.69115405
625.935	42.69996538
626.126	42.7012092
626.316	42.70730432
626.507	42.71695838
626.697	42.73234071
626.887	42.74420022
627.078	42.74453516
627.268	42.744739
627.458	42.75076659
627.649	42.75961817
627.839	42.75546745
628.029	42.75421127
628.22	42.76873715
628.41	42.77840782
628.6	42.76913993
628.79	42.7855677
628.981	42.7813328
629.171	42.78949806
629.361	42.77293895
629.551	42.78726966
629.741	42.80665885
629.932	42.81535338
630.122	42.836988
630.312	42.83603503
630.502	42.85280416
630.692	42.85081731
630.882	42.86141951
631.072	42.89062398
631.262	42.89350427
631.452	42.90040125
631.642	42.89730124
631.832	42.91000641
632.022	42.91122264
632.212	42.91725744
632.402	42.91502774
632.592	42.93223368
632.782	42.94397188
632.972	42.95982288
633.162	42.95316788
633.352	42.96599108
633.542	42.95892826
633.732	42.95259245
633.922	42.94944205
634.111	42.95857788
634.301	42.96936089
634.491	42.97312337
634.681	42.98486594
634.871	43.00543519
635.06	42.99713234
635.25	43.00448956
635.44	43.00670603
635.63	43.02229924
635.819	43.01231454
636.009	43.0249556
636.199	43.02252138
636.388	43.01307048
636.578	43.00426991
636.768	43.01387925
636.957	43.01703102
637.147	43.0326839
637.337	43.04750953
637.526	43.05720461
637.716	43.06430587
637.905	43.07969137
638.095	43.08397429
638.284	43.09327172
638.474	43.07378804
638.663	43.07103203
638.853	43.06244995
639.042	43.07447441
639.232	43.07747495
639.421	43.09459518
639.611	43.09741621
639.8	43.12729791
639.99	43.12312483
640.179	43.1317573
640.368	43.16490382
640.558	43.16799919
640.747	43.18406716
640.936	43.19023038
641.126	43.19222969
641.315	43.19669501
641.504	43.2114168
641.694	43.22343035
641.883	43.22890325
642.072	43.21536212
642.261	43.21419851
642.451	43.24307973
642.64	43.23961868
642.829	43.22761472
643.018	43.22784449
643.207	43.23009671
643.397	43.20690125
643.586	43.22099809
643.775	43.22487173
643.964	43.23076216
644.153	43.23247
644.342	43.2317685
644.531	43.25116742
644.72	43.24468105
644.909	43.25207748
645.098	43.27121502
645.287	43.27038863
645.476	43.2726694
645.665	43.26857567
645.854	43.28562962
646.043	43.3032551
646.232	43.33367819
646.421	43.3172567
646.61	43.33962019
646.799	43.35285745
646.988	43.3556265
647.177	43.37148645
647.365	43.40608779
647.554	43.42488602
647.743	43.43308014
647.932	43.4325829
648.121	43.44713451
648.309	43.47035088
648.498	43.47928037
648.687	43.48345213
648.876	43.49014834
649.064	43.48897071
649.253	43.518276
649.442	43.50936047
649.63	43.5301077
649.819	43.52473155
650.008	43.55281441
650.196	43.55291859
650.385	43.57158832
650.574	43.56746547
650.762	43.60054009
650.951	43.61699142
651.139	43.62450611
651.328	43.62657531
651.516	43.62161907
651.705	43.62510143
651.893	43.65006468
652.082	43.67357467
652.27	43.67883025
652.459	43.6855409
652.647	43.68781366
652.836	43.70758559
653.024	43.72775825
653.213	43.70298919
653.401	43.73277774
653.589	43.75295971
653.778	43.78000253
653.966	43.78651743
654.154	43.80085414
654.343	43.81833064
654.531	43.86019135
654.719	43.85244244
654.908	43.87879881
655.096	43.90593548
655.284	43.92714772
655.472	43.94918534
655.661	43.95163535
655.849	43.94146453
656.037	43.95790337
656.225	43.96214633
656.413	43.97985898
656.601	44.0029481
656.79	44.01085389
656.978	44.0207878
657.166	44.06169975
657.354	44.06350796
657.542	44.06415935
657.73	44.07498539
657.918	44.06474317
658.106	44.05991337
658.294	44.05832068
658.482	44.05735192
658.67	44.05969264
658.858	44.05053964
659.046	44.04788027
659.234	44.04376493
659.422	44.04551767
659.61	44.03569524
659.798	44.05517097
659.986	44.0449611
660.173	44.0473027
660.361	44.03747058
660.549	44.04096201
660.737	44.04286929
660.925	44.04974211
661.113	44.04880417
661.3	44.07290636
661.488	44.0950433
661.676	44.10412437
661.864	44.12547911
662.051	44.14362444
662.239	44.18009906
662.427	44.15670559
662.614	44.19003688
662.802	44.20268456
662.99	44.22255741
663.177	44.22833283
663.365	44.2352701
663.553	44.27596164
663.74	44.29374992
663.928	44.30237584
664.115	44.32653307
664.303	44.35755277
664.49	44.37931013
664.678	44.41938659
664.866	44.42464263
665.053	44.43044556
665.24	44.43239628
665.428	44.44045549
665.615	44.42500239
665.803	44.44038634
665.99	44.44302254
666.178	44.47927285
666.365	44.51690929
666.552	44.52889007
666.74	44.52233869
666.927	44.51719215
667.114	44.54134052
667.302	44.55890085
667.489	44.57810204
667.676	44.57627157
667.864	44.59231192
668.051	44.59715089
668.238	44.60449664
668.425	44.60325156
668.613	44.59659238
668.8	44.62720057
668.987	44.65540707
669.174	44.6756281
669.361	44.67876593
669.548	44.72361801
669.736	44.72414238
669.923	44.73518412
670.11	44.72511451
670.297	44.737643
670.484	44.74392293
670.671	44.77521298
670.858	44.78785479
671.045	44.82300743
671.232	44.84287807
671.419	44.83979146
671.606	44.85580272
671.793	44.87190218
671.98	44.88256463
672.167	44.88867906
672.354	44.90303153
672.541	44.91054237
672.728	44.90843232
672.915	44.91372615
673.101	44.92651038
673.288	44.9279606
673.475	44.94717654
673.662	44.95369344
673.849	44.97841176
674.035	44.98446366
674.222	44.99751039
674.409	45.0016264
674.596	45.01765491
674.783	45.02429249
674.969	45.00570711
675.156	44.99470273
675.343	45.00522495
675.529	45.03987704
675.716	45.06083009
675.903	45.06452537
676.089	45.08496438
676.276	45.09935758
676.462	45.10618209
676.649	45.11698911
676.836	45.14009005
677.022	45.15653412
677.209	45.17302822
677.395	45.18163703
677.582	45.21176155
677.768	45.23049346
677.955	45.23678873
678.141	45.2622556
678.328	45.27774862
678.514	45.29847579
678.701	45.30924323
678.887	45.31272092
679.073	45.35601875
679.26	45.39870257
679.446	45.39318586
679.632	45.38554417
679.819	45.41894833
680.005	45.4440902
680.191	45.46959144
680.378	45.47635595
680.564	45.49218955
680.75	45.48631008
680.936	45.4817288
681.123	45.50103541
681.309	45.50636081
681.495	45.51492571
681.681	45.50548386
681.867	45.53610532
682.054	45.54098877
682.24	45.55316711
682.426	45.55869873
682.612	45.59588101
682.798	45.63902324
682.984	45.63529827
683.17	45.62152888
683.356	45.65811997
683.542	45.68754059
683.728	45.72302537
683.914	45.72069278
684.1	45.70798975
684.286	45.7494978
684.472	45.80138006
684.658	45.87031272
684.844	45.90131031
685.03	45.90605388
685.216	45.9415331
685.402	45.9501565
685.588	45.99196156
685.774	45.99740848
685.96	46.01550254
686.145	46.04580902
686.331	46.08776704
686.517	46.10842408
686.703	46.12145259
686.889	46.16300925
687.074	46.20087338
687.26	46.22331407
687.446	46.24706969
687.631	46.25435855
687.817	46.30180479
688.003	46.35173392
688.189	46.34711993
688.374	46.33325161
688.56	46.32514381
688.745	46.36015334
688.931	46.41285354
689.117	46.42663759
689.302	46.47170398
689.488	46.4990332
689.673	46.53166766
689.859	46.53485951
690.044	46.56881082
690.23	46.58095103
690.415	46.62627239
690.601	46.64144572
690.786	46.67386387
690.972	46.72403848
691.157	46.74891103
691.343	46.77859732
691.528	46.79109008
691.713	46.8025371
691.899	46.81200852
692.084	46.88055085
692.269	46.91850168
692.455	46.93748563
692.64	46.95385667
692.825	47.01230546
693.011	47.05103744
693.196	47.08082942
693.381	47.10020065
693.566	47.11208437
693.752	47.1352182
693.937	47.17475345
694.122	47.20869824
694.307	47.23393198
694.492	47.29672393
694.678	47.30960476
694.863	47.33386036
695.048	47.37332031
695.233	47.39838434
695.418	47.42349209
695.603	47.46403
695.788	47.51002471
695.973	47.53734218
696.158	47.56083652
696.343	47.5917
696.528	47.6160209
696.713	47.63356049
696.898	47.67159554
697.083	47.71439526
697.268	47.76729807
697.453	47.82886037
697.638	47.90704734
697.823	47.93860409
698.008	47.95674921
698.192	47.96816104
698.377	47.99978323
698.562	48.03931765
698.747	48.05419466
698.932	48.09041875
699.117	48.14192902
699.301	48.18000903
699.486	48.20381748
699.671	48.2366914
699.856	48.2722936
700.04	48.33557236
700.225	48.36325412
700.41	48.40175909
700.594	48.4298238
700.779	48.42731636
700.964	48.45404063
701.148	48.50337131
701.333	48.51886946
701.517	48.52697843
701.702	48.54199639
701.887	48.57134758
702.071	48.62164166
702.256	48.6542176
702.44	48.66538142
702.625	48.6995306
702.809	48.71565557
702.994	48.75045604
703.178	48.79902853
703.362	48.84160844
703.547	48.8752313
703.731	48.89095118
703.916	48.90278453
704.1	48.93737827
704.284	48.93619738
704.469	48.94972937
704.653	48.98814322
704.837	49.03840485
705.022	49.0373377
705.206	49.06129056
705.39	49.1007547
705.575	49.14467448
705.759	49.18541058
705.943	49.17336994
706.127	49.19502083
706.311	49.24502893
706.496	49.24052765
706.68	49.27134392
706.864	49.26847217
707.048	49.27303816
707.232	49.27713477
707.416	49.29483467
707.6	49.33271445
707.785	49.36021651
707.969	49.3859311
708.153	49.45834957
708.337	49.48900992
708.521	49.5041288
708.705	49.4941598
708.889	49.49992797
709.073	49.52657752
709.257	49.56880234
709.441	49.58413353
709.624	49.61913252
709.808	49.65568277
709.992	49.66327069
710.176	49.66295717
710.36	49.72563674
710.544	49.75253348
710.728	49.79719352
710.912	49.8450206
711.095	49.88987873
711.279	49.9174398
711.463	49.94606766
711.647	49.96111365
711.83	49.9919118
712.014	50.00975092
712.198	50.04253411
712.382	50.07177178
712.565	50.11263631
712.749	50.15771576
712.933	50.18503087
713.116	50.18120257
713.3	50.20064746
713.483	50.20117508
713.667	50.25768006
713.851	50.28804789
714.034	50.30621535
714.218	50.3121517
714.401	50.31446761
714.585	50.32823931
714.768	50.32565698
714.952	50.33609564
715.135	50.34919798
715.319	50.37677989
715.502	50.38590548
715.686	50.39606783
715.869	50.42479346
716.052	50.43271499
716.236	50.46069276
716.419	50.48778354
716.602	50.51297978
716.786	50.53959807
716.969	50.55448804
717.152	50.5680274
717.336	50.59229635
717.519	50.60333897
717.702	50.63185776
717.885	50.6668521
718.069	50.67578148
718.252	50.71062837
718.435	50.73680854
718.618	50.79413128
718.801	50.79803822
718.985	50.83933123
719.168	50.84539637
719.351	50.86677311
719.534	50.88613353
719.717	50.8632241
719.9	50.88757352
720.083	50.89866805
720.266	50.88408531
720.449	50.87019156
720.632	50.87394703
720.815	50.91508992
720.998	50.94092124
721.181	50.95387784
721.364	50.97491497
721.547	50.99341371
721.73	51.00979479
721.913	51.03230489
722.096	51.05371076
722.279	51.03282983
722.461	51.03344817
722.644	51.0892797
722.827	51.08239436
723.01	51.09288553
723.193	51.09345675
723.376	51.11163162
723.558	51.15252203
723.741	51.14850969
723.924	51.16411475
724.107	51.20668673
724.289	51.24319545
724.472	51.2538324
724.655	51.25400758
724.837	51.28927314
725.02	51.2994156
725.203	51.29915232
725.385	51.307415
725.568	51.32424005
725.75	51.3501791
725.933	51.36871638
726.115	51.4250708
726.298	51.43885382
726.481	51.46235773
726.663	51.47286796
726.845	51.46633182
727.028	51.51882261
727.21	51.52532469
727.393	51.52513113
727.575	51.53962715
727.758	51.54542584
727.94	51.54505989
728.122	51.54890064
728.305	51.58183995
728.487	51.57121381
728.67	51.54704486
728.852	51.54268799
729.034	51.5520484
729.216	51.55484236
729.399	51.55408878
729.581	51.57179064
729.763	51.56568017
729.945	51.5679499
730.128	51.58772893
730.31	51.60035913
730.492	51.63424279
730.674	51.63324863
730.856	51.63494156
731.039	51.63061782
731.221	51.65521508
731.403	51.67048625
731.585	51.70237381
731.767	51.697664
731.949	51.69861631
732.131	51.68885038
732.313	51.72192702
732.495	51.74029476
732.677	51.78417646
732.859	51.7905575
733.041	51.78196435
733.223	51.79540602
733.405	51.81279002
733.587	51.82807442
733.769	51.82814147
733.951	51.81107874
734.132	51.80000032
734.314	51.80855318
734.496	51.82674921
734.678	51.81571119
734.86	51.82048416
735.042	51.81542173
735.223	51.82402109
735.405	51.80513069
735.587	51.83923727
735.769	51.85640495
735.95	51.85220302
736.132	51.87305317
736.314	51.89246467
736.495	51.88049135
736.677	51.89804939
736.859	51.93383708
737.04	51.96628196
737.222	51.95075837
737.403	51.95304701
737.585	51.98927515
737.767	52.01803928
737.948	52.02482072
738.13	52.02520547
738.311	52.03775287
738.493	52.0632295
738.674	52.09560986
738.856	52.11765788
739.037	52.13349921
739.219	52.18946059
739.4	52.18109487
739.581	52.19589372
739.763	52.21657451
739.944	52.22463811
740.125	52.23050036
740.307	52.24026358
740.488	52.26509167
740.669	52.2726899
740.851	52.24691007
741.032	52.25023354
741.213	52.25497494
741.395	52.25932451
741.576	52.25074441
741.757	52.24657692
741.938	52.26041122
742.119	52.25800808
742.301	52.25816486
742.482	52.26608861
742.663	52.2596527
742.844	52.26372477
743.025	52.26033476
743.206	52.28290574
743.387	52.295542
743.568	52.31462383
743.749	52.31342418
743.93	52.29716464
744.111	52.31109963
744.292	52.30532419
744.473	52.3016318
744.654	52.31540193
744.835	52.36225756
745.016	52.39481552
745.197	52.38257311
745.378	52.40124018
745.559	52.41267262
745.74	52.43369831
745.921	52.47314535
746.102	52.48471806
746.282	52.49718827
746.463	52.51506365
746.644	52.51416818
746.825	52.50054087
747.006	52.50504288
747.186	52.4965607
747.367	52.50749225
747.548	52.50026438
747.728	52.54451426
747.909	52.53169204
748.09	52.53717345
748.27	52.57955113
748.451	52.60936623
748.632	52.5992218
748.812	52.58016596
748.993	52.59794233
749.173	52.62630048
749.354	52.62693496
749.535	52.60535607
749.715	52.61057323
749.896	52.62739496
750.076	52.64193138
750.257	52.6741916
750.437	52.69313003
750.618	52.70682658
750.798	52.73477626
750.978	52.71112563
751.159	52.71239261
751.339	52.74264523
751.52	52.74078268
751.7	52.78644563
751.88	52.7785405
752.061	52.77392298
752.241	52.77031341
752.421	52.76045721
752.601	52.77418389
752.782	52.78732466
752.962	52.79033051
753.142	52.82507793
753.322	52.83119073
753.503	52.8363859
753.683	52.84626972
753.863	52.84700073
754.043	52.84000668
754.223	52.85042815
754.403	52.84260482
754.583	52.84271986
754.764	52.95888504
754.944	52.98044318
755.124	52.97953652
755.304	52.9750658
755.484	52.97255132
755.664	53.00415465
755.844	52.98531121
756.024	52.99682198
756.204	53.01438718
756.384	53.03965054
756.564	53.04056155
756.743	53.00866988
756.923	53.02596472
757.103	53.05921084
757.283	53.04191421
757.463	53.0420326
757.643	53.01373921
757.823	53.01022287
758.002	53.02389653
758.182	53.09243183
758.362	53.05298866
758.542	53.00446927
758.721	53.00589681
758.901	52.99865368
759.081	53.02449885
759.261	53.02683804
759.44	53.04856597
759.62	53.08984271
759.8	53.11390242
759.979	53.13119436
760.159	53.13168975
760.338	53.16771242
760.518	53.18756856
760.698	53.16840902
760.877	53.21318967
761.057	53.24505229
761.236	53.27205752
761.416	53.30091859
761.595	53.3427657
761.775	53.35203441
761.954	53.31749518
762.133	53.36056587
762.313	53.33827459
762.492	53.33485491
762.672	53.34285087
762.851	53.32227572
763.03	53.3140083
763.21	53.31765523
763.389	53.30181488
763.568	53.29826363
763.748	53.28681723
763.927	53.29760181
764.106	53.27810708
764.286	53.26177748
764.465	53.22456365
764.644	53.20604002
764.823	53.18440655
765.002	53.13401181
765.182	53.14584113
765.361	53.08999192
765.54	53.07607728
765.719	53.11609492
765.898	53.09903687
766.077	53.11638704
766.256	53.12857968
766.435	53.13133726
766.614	53.12559443
766.793	53.13987534
766.972	53.17378808
767.151	53.16341972
767.33	53.16964712
767.509	53.20050636
767.688	53.1887476
767.867	53.20051241
768.046	53.21881049
768.225	53.25379954
768.404	53.25571997
768.583	53.27262662
768.762	53.28875051
768.94	53.30112384
769.119	53.3465309
769.298	53.39659726
769.477	53.34778444
769.656	53.35957602
769.834	53.3747624
770.013	53.37160514
770.192	53.38234979
770.37	53.38531954
770.549	53.41174355
770.728	53.3970197
770.906	53.42988582
771.085	53.42958249
771.264	53.40229199
771.442	53.44573214
771.621	53.45043122
771.799	53.49753898
771.978	53.50231831
772.157	53.5137965
772.335	53.52529088
772.514	53.55484732
772.692	53.53836228
772.871	53.54614782
773.049	53.50679833
773.228	53.53236521
773.406	53.54277061
773.584	53.56490197
773.763	53.58236682
773.941	53.60731108
774.119	53.65862251
774.298	53.64838761
774.476	53.65925162
774.655	53.64108102
774.833	53.65079286
775.011	53.66928926
775.189	53.70642539
775.368	53.69073363
775.546	53.68358718
775.724	53.71393904
775.902	53.71461656
776.08	53.7240666
776.259	53.73383316
776.437	53.75503417
776.615	53.73890625
776.793	53.77012187
776.971	53.79056811
777.149	53.80477267
777.327	53.80633677
777.505	53.81569815
777.683	53.84713738
777.861	53.88694099
778.04	53.87839152
778.218	53.89677778
778.395	53.94861942
778.573	53.97139205
778.751	53.99617241
778.929	53.96422921
779.107	53.99435762
779.285	54.01203836
779.463	54.05597811
779.641	54.1078436
779.819	54.1290623
779.997	54.17737119
780.174	54.23255611
780.352	54.2666725
780.53	54.30273773
780.708	54.31905091
780.886	54.3562315
781.063	54.3775262
781.241	54.40467672
781.419	54.38051851
781.596	54.37252372
781.774	54.43150756
781.952	54.43877374
782.129	54.42409078
782.307	54.44004552
782.485	54.46401726
782.662	54.46032691
782.84	54.45634355
783.017	54.47175163
783.195	54.49891484
783.372	54.485112
783.55	54.50355102
783.727	54.47162812
783.905	54.46264499
784.082	54.48407294
784.26	54.46579658
784.437	54.50623656
784.615	54.53858884
784.792	54.5744774
784.969	54.60069674
785.147	54.65110017
785.324	54.6846508
785.501	54.69526588
785.679	54.7343221
785.856	54.77246142
786.033	54.79850706
786.211	54.82488055
786.388	54.86561073
786.565	54.94075491
786.742	54.9793086
786.92	55.00789566
787.097	55.06067154
787.274	55.07297081
787.451	55.14901451
787.628	55.18132674
787.805	55.22938722
787.982	55.29927032
788.16	55.30719648
788.337	55.32195233
788.514	55.29248944
788.691	55.31164896
788.868	55.3554285
789.045	55.37033973
789.222	55.35870971
789.399	55.39382203
789.576	55.41905188
789.753	55.46374278
789.93	55.4832207
790.106	55.54352915
790.283	55.60239429
790.46	55.59425444
790.637	55.56028015
790.814	55.58837308
790.991	55.64049731
791.168	55.64892064
791.344	55.65959358
791.521	55.69227794
791.698	55.70172793
791.875	55.73744534
792.051	55.73997674
792.228	55.77334107
792.405	55.81543926
792.581	55.84963125
792.758	55.83358022
792.935	55.91081815
793.111	55.92661447
793.288	55.91895495
793.465	55.89430174
793.641	55.92180756
793.818	55.90952057
793.994	55.88761527
794.171	55.91464239
794.347	55.91060258
794.524	55.91003872
794.7	55.9280535
794.877	55.96983342
795.053	56.05759084
795.23	56.06582098
795.406	56.11506915
795.583	56.10928822
795.759	56.14686049
795.935	56.18898768
796.112	56.2197
796.288	56.18425216
796.464	56.23485818
796.641	56.21979327
796.817	56.22254902
796.993	56.27272068
797.169	56.31048488
797.346	56.32191551
797.522	56.38904798
797.698	56.44821023
797.874	56.48216619
798.051	56.56622338
798.227	56.59475216
798.403	56.67986121
798.579	56.63610614
798.755	56.61868508
798.931	56.68789704
799.107	56.70532621
799.283	56.76175713
799.459	56.7402739
799.635	56.79679679
799.811	56.7636382
799.987	56.82076026
800.163	56.81565565
800.339	56.85564305
800.515	56.90607009
800.691	56.9802368
800.867	57.06237538
801.043	57.1129127
801.219	57.1025915
801.395	57.08664048
801.571	57.09892034
801.746	57.11135266
801.922	57.09584619
802.098	57.02561345
802.274	57.0834016
802.45	57.09933918
802.625	57.0592938
802.801	57.08820196
802.977	57.13980918
803.152	57.24575479
803.328	57.26249096
803.504	57.3548546
803.679	57.38231162
803.855	57.41333118
804.031	57.42731668
804.206	57.43130795
804.382	57.41233093
804.557	57.39182804
804.733	57.4224515
804.909	57.44757914
805.084	57.4720841
805.26	57.5503098
805.435	57.62997221
805.61	57.68510385
805.786	57.70822917
805.961	57.76134643
806.137	57.86640015
806.312	57.90649344
806.488	57.8873358
806.663	57.91511989
806.838	57.83190622
807.014	57.87872635
807.189	57.88853882
807.364	57.94881055
807.54	58.08310559
807.715	58.1941235
807.89	58.22592917
808.065	58.25960477
808.241	58.30974609
808.416	58.39254357
808.591	58.39241616
808.766	58.44460274
808.941	58.39822093
809.116	58.33549338
809.291	58.40460526
809.467	58.56515734
809.642	58.61700637
809.817	58.52689703
809.992	58.58950648
810.167	58.70678824
810.342	58.7415004
810.517	58.84746205
810.692	58.921043
810.867	59.00811975
811.042	59.00726641
811.217	58.95821402
811.392	59.00247768
811.567	59.14946804
811.741	59.2681745
811.916	59.31690613
812.091	59.3614436
812.266	59.44517063
812.441	59.49578809
812.616	59.59414623
812.79	59.66206656
812.965	59.68782412
813.14	59.63745612
813.315	59.62021467
813.489	59.64076472
813.664	59.64254806
813.839	59.63034933
814.013	59.69464544
814.188	59.82704964
814.363	59.81641522
814.537	59.8387278
814.712	59.87234206
814.887	59.91292677
815.061	59.92631354
815.236	59.86400372
815.41	59.82135494
815.585	59.87876568
815.759	59.74462833
815.934	59.78524641
816.108	59.7785422
816.283	59.73933572
816.457	59.72824961
816.631	59.75082037
816.806	59.77402375
816.98	59.81352741
817.155	59.88394885
817.329	59.85774987
817.503	59.95627033
817.678	59.91912177
817.852	59.84292368
818.026	59.85067906
818.201	59.82158562
818.375	59.86436483
818.549	59.93194485
818.723	59.99341752
818.897	59.98142818
819.072	60.00022287
819.246	59.9202253
819.42	59.99723699
819.594	59.95076144
819.768	59.91468252
819.942	59.91000845
820.116	59.96829687
820.29	59.89879221
820.465	59.89118638
820.639	59.96775961
820.813	59.99591453
820.987	59.9979592
821.161	59.80577171
821.335	59.82161423
821.509	59.80880035
821.682	59.8578173
821.856	59.83516657
822.03	59.79596964
822.204	59.72453802
822.378	59.64760571
822.552	59.63383757
822.726	59.73343404
822.9	59.7722338
823.073	59.71665846
823.247	59.73766247
823.421	59.7929998
823.595	59.95017055
823.768	59.98437299
823.942	60.12013202
824.116	60.24011659
824.289	60.20996816
824.463	60.24974119
824.637	60.40010005
824.81	60.36679459
824.984	60.36411274
825.158	60.37547734
825.331	60.23729519
825.505	60.28985721
825.678	60.24867578
825.852	60.36795804
826.025	60.34021361
826.199	60.32843419
826.372	60.34987827
826.546	60.47210391
826.719	60.52633964
826.893	60.57483863
827.066	60.62364197
827.24	60.52923319
827.413	60.58801723
827.586	60.62249415
827.76	60.56362071
827.933	60.49269397
828.106	60.47744579
828.28	60.48485168
828.453	60.672521
828.626	60.68985034
828.799	60.77260124
828.973	60.87352812
829.146	60.89216474
829.319	61.01245227
829.492	61.03393736
829.665	61.06429723
829.839	61.1973517
830.012	61.11295275
830.185	61.09792563
830.358	61.11595848
830.531	60.96822725
830.704	60.91148416
830.877	60.97443169
831.05	61.00081503
831.223	60.92958443
831.396	60.96088774
831.569	61.09165022
831.742	61.13774802
831.915	61.04390771
832.088	61.04226349
832.261	61.08797862
832.434	61.11501463
832.607	61.13626902
832.779	61.16976829
832.952	61.07119024
833.125	61.08083921
833.298	61.20200698
833.471	60.98590423
833.643	61.1859777
833.816	61.08482791
833.989	60.95929721
834.162	61.19788531
834.334	61.29137305
834.507	61.3444342
834.68	61.16169235
834.852	61.13783036
835.025	61.23689081
835.198	61.15715878
835.37	61.16746527
835.543	61.23207912
835.715	61.23048904
835.888	61.30989305
836.061	61.27767181
836.233	61.35860866
836.406	61.40141931
836.578	61.47747934
836.751	61.47308836
836.923	61.43319383
837.095	61.60331049
837.268	61.46676772
837.44	61.58108162
837.613	61.85211593
837.785	61.76214616
837.957	61.6440041
838.13	61.53191956
838.302	61.75646719
838.474	61.94016032
838.647	61.84980306
838.819	61.93425312
838.991	61.87307422
839.163	61.83714274
839.336	61.78444273
839.508	61.78233171
839.68	61.75427537
839.852	61.59361915
840.024	61.546076
840.196	61.47091947
840.368	61.47198601
840.541	61.42597715
840.713	61.41677487
840.885	61.53744679
841.057	61.44762565
841.229	61.58055606
841.401	61.62209647
841.573	61.8425409
841.745	61.85543342
841.917	61.8673921
842.089	61.80560136
842.261	61.97241648
842.432	62.13248717
842.604	62.27798051
842.776	62.39458435
842.948	62.53227364
843.12	62.59155869
843.292	62.66965045
843.464	62.77289274
843.635	62.88237752
843.807	63.17204301
843.979	63.152057
844.151	63.28265272
844.322	63.49992619
844.494	63.39035662
844.666	63.6200129
844.837	63.39557513
845.009	63.62250539
845.181	63.77601888
845.352	64.0208578
845.524	64.02142244
845.695	64.05351715
845.867	63.58050556
846.039	63.52552007
846.21	63.5206288
846.382	63.59985127
846.553	63.61910495
846.725	63.6578865
846.896	63.7837066
847.068	63.83602071
847.239	63.79076759
847.41	63.56178809
847.582	63.55181102
847.753	63.54240709
847.925	63.44432384
848.096	63.49548704
848.267	63.44225494
848.439	63.5555686
848.61	63.24333741
848.781	62.93776114
848.952	62.92075667
849.124	62.95743464
849.295	62.90295545
849.466	63.31417883
849.637	63.21453752
849.808	63.18267484
849.98	63.20466318
850.151	63.18031905
850.322	63.06515773
850.493	62.98633861
850.664	62.99579685
850.835	62.86985782
851.006	62.84722714
851.177	63.02390529
851.348	62.95998111
851.519	63.2103886
851.69	63.29216052
851.861	63.36661423
852.032	63.40386782
852.203	63.92696588
852.374	64.23851643
852.545	63.93553548
852.716	64.07227738
852.887	64.16158974
853.057	64.30110556
853.228	64.4727946
853.399	64.78241034
853.57	64.76382837
853.741	65.024189
853.911	65.05297211
854.082	64.97685809
854.253	65.19568658
854.424	65.63494371
854.594	65.81324568
854.765	66.03236379
854.936	66.09924914
855.106	65.8553761
855.277	66.05338682
855.447	66.32352941
855.618	66.4935741
855.789	66.32648673
855.959	66.12938235
856.13	66.69565293
856.3	66.62314712
856.471	66.73178938
856.641	66.72274563
856.812	66.61225855
856.982	66.50553996
857.153	66.73788648
857.323	66.84790712
857.493	66.65204265
857.664	66.96297637
857.834	66.91622532
858.004	66.6665043
858.175	66.72709132
858.345	66.25271485
858.515	66.44088052
858.686	66.89675198
858.856	66.78740725
859.026	66.5575562
859.196	66.52990749
859.367	66.65509136
859.537	66.85830178
859.707	66.6291555
859.877	66.76356158
860.047	66.89885088
860.217	66.65284468
860.387	66.88249977
860.558	66.49131944
860.728	66.50372603
860.898	66.20897168
861.068	66.63654832
861.238	66.69038337
861.408	67.06049831
861.578	67.36153011
861.748	67.39170114
861.918	68.07498153
862.088	68.20465428
862.257	67.8169472
862.427	68.04480472
862.597	68.00357297
862.767	67.87197981
862.937	67.97377663
863.107	68.42020716
863.277	68.51384249
863.446	68.32197189
863.616	68.14769369
863.786	68.64094585
863.956	68.29408115
864.125	68.93803262
864.295	68.80224948
864.465	68.93449477
864.634	69.27964301
864.804	69.13933257
864.974	68.83256108
865.143	68.65544381
865.313	68.85723084
865.482	68.54575163
865.652	68.24435104
865.822	68.38922444
865.991	68.12186499
866.161	68.43634969
866.33	68.81707922
866.5	68.57140619
866.669	68.38647512
866.838	69.04711822
867.008	69.17423015
867.177	68.665474
867.347	68.81363546
867.516	69.34870075
867.685	68.96053654
867.855	69.3012766
868.024	69.78421596
868.193	69.55930265
868.363	69.72599165
868.532	70.25071557
868.701	70.38206926
868.87	70.01999208
869.04	70.35733869
869.209	70.88830986
869.378	70.73983497
869.547	70.56263511
869.716	70.80295454
869.885	70.9064944
870.055	71.2818287
870.224	71.28057526
870.393	70.00445339
870.562	70.18417756
870.731	71.09964076
870.9	71.30146268
871.069	72.06024777
871.238	72.73757967
871.407	72.69372312
871.576	72.57757213
871.745	72.21601686
871.914	72.87796111
872.083	73.12401781
872.251	73.31679894
872.42	73.10437606
872.589	73.36256785
872.758	72.47467927
872.927	73.24633138
873.096	74.26064534
873.264	74.0394828
873.433	74.13636364
873.602	74.10478392
873.771	74.2641806
873.939	75.31774093
874.108	75.68247472
874.277	76.32408267
874.445	76.35158487
874.614	76.23013712
874.783	76.21525178
874.951	75.28176101
875.12	75.95357179
875.288	77.05203931
875.457	76.61249301
875.625	75.93900935
875.794	75.37784356
875.962	76.65693546
876.131	76.53247096
876.299	78.14317733
876.468	77.91716394
876.636	77.52246788
876.805	77.50572019
876.973	77.74711277
877.141	77.78677808
877.31	77.33125857
877.478	76.90534192
877.647	77.40421626
877.815	77.22507616
877.983	77.03419633
878.151	77.49327382
878.32	77.11684883
878.488	78.91709333
878.656	78.48020235
878.824	79.08378446
878.992	79.90437508
879.161	80.24209105
879.329	80.42781268
879.497	81.57384908
879.665	81.87609251
879.833	81.10087131
880.001	82.24792771
880.169	81.6308734
880.337	82.29583391
880.505	82.24493361
880.673	82.97565663
880.841	82.92934037
881.009	85.0066026
881.177	84.4318768
881.345	84.71252721
881.513	85.07515704
881.681	84.06872092
881.849	84.83374671
882.017	83.6404017
882.185	83.34300975
882.352	82.90356974
882.52	82.57455897
882.688	83.89192051
882.856	85.47821423
883.024	84.80392157
883.191	84.51104746
883.359	85.53553342
883.527	85.570146
883.694	86.95790008
883.862	87.66742964
884.03	87.35452678
884.197	86.23399808
884.365	88.76308152
884.533	89.22667977
884.7	89.89209277
884.868	90.69533762
885.035	91.4827711
885.203	92.28439379
885.37	92.44360309
885.538	94.23970613
885.705	95.67833094
885.873	95.53630076
886.04	96.13179925
886.208	95.07659353
886.375	95.20198507
886.542	95.38924114
886.71	97.02770781
886.877	97.82496665
