Data from orangeuv_paint_Reflection_001.txt Node
Date: Tue Nov 21 14:26:28 AEST 2023
User: uqkchene_local
Spectrometer: USB4E02642
Trigger mode: 4
Integration Time (sec): 7.600000E-2
Scans to average: 10
Electric dark correction enabled: true
Nonlinearity correction enabled: false
Boxcar width: 10
XAxis mode: Wavelengths
Number of Pixels in Spectrum: 3648
>>>>>Begin Spectral Data<<<<<
179.217	533.18007663
179.432	242.78846154
179.647	281.6290394
179.862	161.02564103
180.077	884.44444444
180.293	403.9800995
180.508	579.96146435
180.723	-90.19607843
180.938	-14973.33333342
181.153	-907.52688172
181.368	-3012.90322581
181.583	-521.25984252
181.798	551.67785235
182.013	-10.79913607
182.228	-120.57245081
182.443	-12.11845103
182.658	4.68689973
182.873	-26.52970076
183.088	-27.54584471
183.303	14.67737469
183.518	-0.75868106
183.733	16.71345282
183.948	15.16002246
184.162	20.98036085
184.377	12.22074271
184.592	5.51699591
184.807	13.98256292
185.022	12.02520865
185.237	15.0620304
185.452	29.09567497
185.667	35.53389455
185.882	33.98896278
186.096	42.34938932
186.311	49.85140199
186.526	52.91135772
186.741	52.02013683
186.956	56.9572443
187.17	51.09400936
187.385	56.11392578
187.6	62.45986319
187.815	69.1050817
188.03	74.14366238
188.244	73.95356184
188.459	70.85258964
188.674	75.31490882
188.889	82.00853832
189.103	80.31338556
189.318	75.72951249
189.533	72.41088022
189.747	53.96825397
189.962	43.53107917
190.177	40.05382373
190.391	33.32601537
190.606	35.32946984
190.821	28.92890995
191.035	19.87784564
191.25	29.66882226
191.465	29.64251208
191.679	26.21842053
191.894	27.71434968
192.109	32.23770707
192.323	35.7457847
192.538	29.50142082
192.752	29.12446545
192.967	35.04337051
193.181	36.79139592
193.396	32.72890083
193.611	26.43913538
193.825	27.48310465
194.04	19.78179217
194.254	24.88815244
194.469	31.37815928
194.683	34.3108089
194.898	39.21940642
195.112	30.97112861
195.327	27.88792397
195.541	35.2799155
195.756	29.4246816
195.97	32.16547066
196.184	38.15734702
196.399	36.71630584
196.613	34.61054558
196.828	34.05005287
197.042	37.94585802
197.257	36.8503937
197.471	27.58379073
197.685	30.56852184
197.9	27.32904734
198.114	24.25570305
198.328	24.95017935
198.543	39.26773455
198.757	43.38223695
198.971	51.32914451
199.186	56.0523446
199.4	54.57621384
199.614	70.98754904
199.829	78.90880748
200.043	76.14005124
200.257	85.2387557
200.471	73.89273033
200.686	70.03102378
200.9	71.32807504
201.114	63.64708658
201.328	53.64104862
201.543	60.00499625
201.757	63.05818674
201.971	79.56390629
202.185	73.50350124
202.399	81.15408226
202.614	87.40620564
202.828	93.38218457
203.042	79.47564077
203.256	76.11508013
203.47	65.65338276
203.684	71.97276016
203.899	81.80796042
204.113	64.33536971
204.327	58.02491424
204.541	62.41896648
204.755	65.41367238
204.969	75.35938449
205.183	84.82258963
205.397	87.1375754
205.611	96.50010115
205.825	99.07692308
206.039	94.95915521
206.253	91.17379436
206.467	91.74917492
206.681	78.32143479
206.895	79.8366712
207.109	66.39358252
207.323	64.49373774
207.537	66.10851715
207.751	61.00619429
207.965	62.31454006
208.179	49.28739449
208.393	49.44917027
208.607	52.04633205
208.821	53.09879993
209.035	48.23194235
209.249	48.62155388
209.463	38.55977843
209.677	36.69807088
209.891	35.31144161
210.104	28.24253781
210.318	27.6324438
210.532	28.3062645
210.746	26.40839864
210.96	23.24090399
211.174	25.21955261
211.387	18.55603795
211.601	18.93436293
211.815	21.83266932
212.029	20.42883674
212.243	28.86409365
212.456	31.12183353
212.67	25.61746123
212.884	17.9674942
213.098	13.69079535
213.311	7.61191087
213.525	12.59070406
213.739	11.79832619
213.953	24.25294004
214.166	22.93492448
214.38	26.87118832
214.594	36.04716451
214.807	30.14161911
215.021	31.8696069
215.235	36.89068826
215.448	35.44981881
215.662	36.32216178
215.876	38.80914407
216.089	54.987459
216.303	45.11477898
216.516	46.4590221
216.73	39.51515152
216.944	39.09073971
217.157	61.62888329
217.371	56.71059053
217.584	61.08417805
217.798	56.32032734
218.011	57.62711864
218.225	53.08918456
218.439	41.40018423
218.652	37.57508032
218.866	44.10311206
219.079	47.04850232
219.293	53.69969217
219.506	53.30698594
219.719	50.15587979
219.933	49.8237635
220.146	51.93392839
220.36	54.01844532
220.573	47.4297881
220.787	50.6096903
221	45.12366346
221.214	44.8041076
221.427	41.67108472
221.64	35.53125335
221.854	42.45048165
222.067	38.87566587
222.28	38.63247863
222.494	38.65403045
222.707	35.53145883
222.92	44.06450831
223.134	41.82759056
223.347	33.94884421
223.56	24.54799353
223.774	17.40578175
223.987	17.19917342
224.2	19.67058824
224.414	18.99204244
224.627	19.62530143
224.84	24.58391819
225.053	34.29218573
225.267	31.48472465
225.48	39.92270531
225.693	45.98443137
225.906	61.13641813
226.119	59.76611097
226.333	51.61844744
226.546	29.51035163
226.759	28.73530255
226.972	18.19350691
227.185	13.26116373
227.398	1.17614114
227.612	20.68604347
227.825	25.10735034
228.038	14.97182721
228.251	12.41162608
228.464	3.52067869
228.677	4.1145281
228.89	3.47236081
229.103	-1.4375953
229.316	-8.38905775
229.529	-3.0617284
229.743	-0.83167601
229.956	0.18716077
230.169	-4.47994443
230.382	-4.25781824
230.595	-13.82434605
230.808	-4.62007845
231.021	9.25376982
231.234	5.03285783
231.447	4.40348182
231.66	9.35426444
231.872	20.83704363
232.085	27.82578029
232.298	18.25618145
232.511	43.89196924
232.724	48.2959723
232.937	55.67625133
233.15	72.77261392
233.363	76.50465878
233.576	68.54130053
233.789	72.8989178
234.002	87.91967367
234.214	78.9182902
234.427	70.29733959
234.64	76.30316597
234.853	75.13007284
235.066	82.77087034
235.279	68.56997196
235.491	62.43721914
235.704	64.98181122
235.917	67.22111734
236.13	74.69879518
236.342	73.51750836
236.555	53.44242666
236.768	63.60785608
236.981	39.09197129
237.193	39.5280236
237.406	35.41856648
237.619	27.74025974
237.832	29.13928514
238.044	36.08072716
238.257	35.58244145
238.47	30.84988086
238.682	15.40905481
238.895	17.96068449
239.108	18.15013794
239.32	24.10645211
239.533	33.53355071
239.746	28.21876995
239.958	23.16313823
240.171	1.0195868
240.383	-10.01517451
240.596	15.32749934
240.808	15.43568465
241.021	31.01786221
241.234	14.39736734
241.446	38.85167464
241.659	47.82242203
241.871	65.42255399
242.084	54.43217219
242.296	44.66019417
242.509	37.07571802
242.721	33.13732273
242.934	38.94389439
243.146	62.91079812
243.359	78.66268008
243.571	88.52646638
243.784	81.04002337
243.996	62.96581856
244.208	69.09587793
244.421	76.41527538
244.633	91.19818285
244.846	92.56769035
245.058	78.03962461
245.27	68.40943813
245.483	65.09225092
245.695	64.90430951
245.907	72.31995189
246.12	61.85273159
246.332	60.8916389
246.544	71.4710951
246.757	86.23679647
246.969	87.32394366
247.181	78.84532529
247.394	84.01316731
247.606	81.28838951
247.818	64.44143738
248.03	66.77434986
248.243	58.83364379
248.455	56.45653616
248.667	54.22107304
248.879	51.99942255
249.092	45.00707658
249.304	40.25916654
249.516	51.48881607
249.728	58.06003817
249.94	55.99470812
250.153	53.22027783
250.365	51.96548418
250.577	60.27867914
250.789	46.12425466
251.001	32.37345734
251.213	24.54009645
251.425	22.06582488
251.637	25.7631522
251.85	21.59665714
252.062	14.65991635
252.274	43.60213686
252.486	37.07171739
252.698	38.72731792
252.91	56.26502805
253.122	46.04810997
253.334	41.62959494
253.546	51.95729537
253.758	47.71064186
253.97	34.01631192
254.182	25.19992891
254.394	30.41375605
254.606	30.40504997
254.818	38.50385039
255.03	35.92527543
255.242	48.16835542
255.454	48.84455528
255.666	52.01053556
255.877	51.19184613
256.089	50.24838176
256.301	51.96941278
256.513	57.0529156
256.725	43.57944314
256.937	43.23742114
257.149	47.01796769
257.361	38.76849499
257.572	41.34292566
257.784	36.64487323
257.996	27.94554843
258.208	28.05897553
258.42	33.73902326
258.631	38.85528839
258.843	33.38872942
259.055	34.28828559
259.267	22.13402534
259.479	22.24245183
259.69	18.76141458
259.902	20.98574618
260.114	20.76092062
260.325	12.70765542
260.537	14.96457577
260.749	-2.24548049
260.961	3.03185147
261.172	7.499568
261.384	12.0697935
261.596	8.07023468
261.807	0.4117537
262.019	2.59447265
262.23	9.37896071
262.442	14.99541705
262.654	14.00285773
262.865	10.17092214
263.077	3.75760783
263.288	-12.56449165
263.5	-0.26239832
263.712	8.05623141
263.923	23.88673213
264.135	27.77009678
264.346	26.61114416
264.558	28.73809061
264.769	35.57491949
264.981	35.59975644
265.192	36.16080825
265.404	31.18434604
265.615	31.37470254
265.827	31.46031235
266.038	28.79649891
266.25	37.06007067
266.461	29.12924639
266.673	34.10163095
266.884	33.44006682
267.095	33.44042464
267.307	33.2058552
267.518	33.11775473
267.73	38.39867346
267.941	36.92879257
268.152	37.65234883
268.364	32.22887558
268.575	33.75583722
268.786	30.85855466
268.998	28.19877397
269.209	24.14005671
269.42	26.62917227
269.632	26.51289977
269.843	28.01152738
270.054	28.41252569
270.265	29.87602799
270.477	30.57408134
270.688	33.26056248
270.899	32.52706134
271.11	24.91196035
271.322	16.81752591
271.533	25.75314605
271.744	27.51561877
271.955	22.26524685
272.166	25.63181527
272.378	30.02919152
272.589	33.61777055
272.8	38.77877631
273.011	36.12635687
273.222	33.42903508
273.433	31.93628411
273.644	41.17725043
273.856	45.70383912
274.067	47.19738896
274.278	47.50751701
274.489	48.86715566
274.7	45.48506803
274.911	50.70004942
275.122	47.50414719
275.333	52.76317659
275.544	55.01955671
275.755	60.0263659
275.966	52.84356829
276.177	44.96615296
276.388	44.79618994
276.599	47.94241478
276.81	42.17242914
277.021	33.69867017
277.232	23.91137098
277.443	31.31387943
277.654	39.47662358
277.865	33.49675787
278.076	25.58024691
278.287	23.06429957
278.497	23.08318411
278.708	25.28520081
278.919	26.95078951
279.13	34.5374699
279.341	32.61175868
279.552	35.72309801
279.763	23.57236746
279.973	29.99237223
280.184	39.37632884
280.395	43.14827829
280.606	48.11783961
280.817	51.51324878
281.027	48.96032657
281.238	44.16635065
281.449	49.3311664
281.66	55.30893821
281.87	46.96152463
282.081	50.81682308
282.292	57.28972985
282.503	55.22918996
282.713	54.512958
282.924	53.45858241
283.135	52.19461106
283.345	52.85466338
283.556	51.50437374
283.767	51.75597221
283.977	47.93580199
284.188	55.08809088
284.399	53.48174041
284.609	54.26177405
284.82	54.65731039
285.03	60.95838314
285.241	57.42942819
285.451	57.05566663
285.662	59.44157992
285.873	53.62129583
286.083	50.80288824
286.294	46.8838975
286.504	42.23962244
286.715	41.81921546
286.925	36.02091694
287.136	32.80887913
287.346	37.88254756
287.557	47.74104998
287.767	38.15304058
287.978	33.75697826
288.188	29.35563979
288.399	28.01113025
288.609	26.01742111
288.819	25.40924236
289.03	11.28001137
289.24	13.05342484
289.451	16.69217187
289.661	17.71352205
289.871	19.668215
290.082	16.76413255
290.292	29.37840028
290.502	26.87756298
290.713	34.24016196
290.923	38.55393586
291.133	38.30929218
291.344	39.89846544
291.554	36.42491574
291.764	31.9371053
291.974	28.86878949
292.185	40.91176125
292.395	42.38819627
292.605	42.00880638
292.815	35.24198251
293.026	34.38789546
293.236	27.80737037
293.446	30.61343266
293.656	30.90973787
293.866	19.35997875
294.077	16.76792224
294.287	14.10108765
294.497	18.33310965
294.707	14.83316334
294.917	24.27276417
295.127	25.97562477
295.337	15.8544682
295.548	7.435653
295.758	16.8418321
295.968	23.4805587
296.178	26.0418019
296.388	25.11447204
296.598	10.69389168
296.808	7.31755038
297.018	15.53985873
297.228	30.18937305
297.438	36.11577965
297.648	50.69013803
297.858	58.86429259
298.068	41.90592547
298.278	41.03623052
298.488	42.74147995
298.698	43.38222606
298.908	43.69212084
299.118	38.36137527
299.328	39.4328755
299.538	30.77747989
299.748	24.69181233
299.957	28.22737737
300.167	24.25819885
300.377	28.41696232
300.587	21.16964717
300.797	11.8970513
301.007	18.22265899
301.217	21.06581327
301.426	24.64606672
301.636	28.83295195
301.846	24.57637756
302.056	22.66335815
302.266	24.45083381
302.475	30.90472378
302.685	40.99691323
302.895	45.90758724
303.105	49.23558445
303.314	54.35512012
303.524	57.65023441
303.734	61.06083809
303.944	62.90808968
304.153	71.21639867
304.363	71.23183828
304.573	78.47195605
304.782	79.83456574
304.992	86.90120732
305.202	86.69249032
305.411	92.10491279
305.621	93.26706899
305.831	89.43174396
306.04	87.92977323
306.25	92.39527076
306.459	87.65304617
306.669	77.26521412
306.878	70.80745342
307.088	70.93290131
307.298	67.27246912
307.507	65.86795156
307.717	60.64058742
307.926	53.99789891
308.136	45.61156151
308.345	46.66120922
308.555	47.34449496
308.764	50.39489343
308.974	51.30199128
309.183	41.88976378
309.392	42.07926614
309.602	46.38974711
309.811	47.2965346
310.021	35.55610541
310.23	42.90957624
310.44	39.5803103
310.649	42.73143259
310.858	48.29907441
311.068	56.25387381
311.277	60.52597819
311.486	50.7674144
311.696	48.27947141
311.905	46.49087221
312.114	48.40645419
312.324	53.35395866
312.533	46.86734841
312.742	47.37707368
312.952	33.98211468
313.161	36.94393914
313.37	27.46768061
313.579	30.209748
313.789	25.00382555
313.998	18.26127673
314.207	21.02139622
314.416	18.63979849
314.625	16.19810091
314.835	21.70344702
315.044	13.25750844
315.253	9.6610447
315.462	10.47270412
315.671	18.50250735
315.88	11.03154635
316.09	19.15201655
316.299	5.59041643
316.508	-1.73842733
316.717	-7.32419681
316.926	17.0895068
317.135	19.61752005
317.344	36.55397288
317.553	25.14148517
317.762	30.36111587
317.971	39.55079839
318.18	40.418483
318.389	51.23966942
318.598	39.80311731
318.807	38.83580773
319.016	32.22999223
319.225	38.81358635
319.434	38.06461491
319.643	43.63001745
319.852	33.07626392
320.061	23.93873814
320.27	37.02607731
320.479	35.2119384
320.688	41.57450797
320.897	41.55793574
321.105	46.6444717
321.314	37.79618571
321.523	28.33364857
321.732	19.13450292
321.941	23.03780677
322.15	15.85048498
322.359	-0.81281377
322.567	8.57212834
322.776	3.27868852
322.985	1.19990401
323.194	10.52143685
323.403	13.86876423
323.611	14.21257424
323.82	24.38041507
324.029	22.29631173
324.237	32.50556602
324.446	33.37154085
324.655	34.81173791
324.864	40.02661787
325.072	43.14806308
325.281	52.92941719
325.49	48.01178203
325.698	51.12461008
325.907	54.93753209
326.116	62.9486982
326.324	68.38247272
326.533	74.48168355
326.741	69.31327037
326.95	64.01906275
327.159	62.19492993
327.367	72.40840424
327.576	70.24203378
327.784	77.69863014
327.993	75.98953793
328.201	67.61000863
328.41	70.78384798
328.618	71.34544172
328.827	74.40040823
329.035	64.71594148
329.244	56.59511716
329.452	58.62229824
329.661	44.64426566
329.869	43.79828628
330.078	35.01333708
330.286	35.30669518
330.495	32.76122477
330.703	39.32847117
330.911	36.79022629
331.12	40.4792469
331.328	38.88520239
331.537	31.25434088
331.745	20.88545327
331.953	28.43713278
332.162	26.40164496
332.37	23.05599313
332.578	22.88029054
332.787	17.99337844
332.995	21.81040627
333.203	15.63709553
333.411	23.26297951
333.62	9.65801684
333.828	1.75131349
334.036	12.46011755
334.244	5.9535241
334.453	21.0505912
334.661	14.9870801
334.869	8.79541109
335.077	3.00326442
335.285	-2.3576624
335.494	12.36595939
335.702	14.13731948
335.91	38.84057971
336.118	39.40127669
336.326	23.40483302
336.534	28.02695794
336.742	24.15146617
336.951	20.6518762
337.159	27.77312098
337.367	14.80314961
337.575	17.95345401
337.783	22.15635421
337.991	45.62519885
338.199	47.71748493
338.407	62.65513351
338.615	70.38969009
338.823	73.39172455
339.031	101.78428762
339.239	99.49652362
339.447	94.82381531
339.655	83.52490421
339.863	83.80506491
340.071	76.22298066
340.279	58.4424229
340.487	77.21487397
340.695	77.00097371
340.903	77.10019788
341.11	76.27951196
341.318	76.38239562
341.526	78.05785823
341.734	79.35973041
341.942	76.59639945
342.15	76.49189104
342.358	72.98032315
342.565	64.83531885
342.773	63.40227944
342.981	57.50573833
343.189	55.71493281
343.397	37.25648044
343.604	35.21012494
343.812	35.79680329
344.02	29.82426778
344.228	24.53531599
344.435	32.53705318
344.643	38.6250231
344.851	35.18959226
345.058	20.47645026
345.266	2.39390642
345.474	-2.08935319
345.681	-0.33167496
345.889	-5.14435696
346.097	0.15218384
346.304	2.70901448
346.512	5.50511601
346.72	7.22638287
346.927	7.97712652
347.135	2.83907238
347.342	2.25942562
347.55	-0.37534286
347.758	8.86241464
347.965	12.86145878
348.173	21.81040627
348.38	29.18603107
348.588	34.43833043
348.795	41.4159292
349.003	34.95607235
349.21	41.09152928
349.418	43.26530612
349.625	41.48374222
349.833	39.90447761
350.04	43.95577694
350.247	38.22032896
350.455	36.52802893
350.662	37.13510581
350.87	37.43676223
351.077	35.80349709
351.284	40.58004912
351.492	39.68163729
351.699	48.88888889
351.906	50.94516971
352.114	40.35034118
352.321	38.81937761
352.528	31.55929038
352.736	27.79223483
352.943	26.10873422
353.15	19.28595262
353.358	24.54270139
353.565	21.92821267
353.772	30.09579241
353.979	37.88925377
354.187	36.99298204
354.394	35.01152493
354.601	42.04107032
354.808	51.09838903
355.015	57.06884799
355.223	52.94653311
355.43	52.18859592
355.637	44.05921802
355.844	48.74984604
356.051	44.70889315
356.258	41.82989352
356.465	45.66245049
356.673	45.6597851
356.88	50.58284217
357.087	54.59571527
357.294	60.74609526
357.501	56.54586235
357.708	57.66505035
357.915	60.2126329
358.122	62.58184064
358.329	59.24287759
358.536	60.80019943
358.743	63.37248549
358.95	61.51151825
359.157	55.72425113
359.364	46.49401787
359.571	45.26801336
359.778	36.43996641
359.985	38.92029911
360.192	43.39796861
360.399	38.52870147
360.606	37.78373548
360.812	49.18547596
361.019	49.1277321
361.226	51.60534333
361.433	44.92663774
361.64	29.5503212
361.847	23.79687039
362.054	25.68377182
362.26	-5.7057802
362.467	-12.86851732
362.674	5.44927536
362.881	6.0871295
363.088	22.26620485
363.294	19.17897128
363.501	21.02839601
363.708	25.43611153
363.915	18.43278217
364.121	30.99577198
364.328	37.42837177
364.535	38.54567863
364.741	33.22751323
364.948	29.43918208
365.155	22.7935866
365.361	21.74948405
365.568	13.2000588
365.775	10.51974403
365.981	4.04780876
366.188	7.65233821
366.395	12.21783741
366.601	25.98800554
366.808	22.0347562
367.014	10.20956475
367.221	6.79218723
367.427	5.9390959
367.634	9.3206064
367.84	8.59248607
368.047	1.96187303
368.254	12.26433816
368.46	16.60289469
368.667	5.96637136
368.873	5.96059943
369.079	14.54755933
369.286	6.81011072
369.492	10.46638931
369.699	5.67403639
369.905	25.64651329
370.112	27.45235181
370.318	37.64437937
370.524	43.815731
370.731	37.54369965
370.937	26.17833411
371.144	29.39745241
371.35	37.95936014
371.556	43.58940221
371.763	33.91489896
371.969	28.8308183
372.175	31.52303811
372.381	31.65963971
372.588	27.58531205
372.794	29.5764739
373	24.27775619
373.206	17.52057992
373.413	9.60163432
373.619	17.68101266
373.825	16.85449287
374.031	18.53788383
374.238	14.42224153
374.444	16.30708882
374.65	14.75951998
374.856	7.19926161
375.062	1.01391436
375.268	8.30954646
375.475	9.32938207
375.681	5.85233781
375.887	2.37395187
376.093	1.3208203
376.299	0.02321532
376.505	4.85632489
376.711	6.01186287
376.917	7.79624769
377.123	2.25512305
377.329	4.20193169
377.535	7.16364001
377.741	14.39072368
377.947	10.00106621
378.153	11.52374056
378.359	12.52744955
378.565	11.6626506
378.771	11.64310093
378.977	11.75793613
379.183	12.8015327
379.389	18.92356844
379.595	20.15650937
379.801	17.18688576
380.007	19.6040404
380.213	17.89030875
380.418	18.43883495
380.624	21.38384229
380.83	22.21547339
381.036	21.12072325
381.242	23.67408525
381.448	23.94898791
381.653	27.18255471
381.859	23.25302109
382.065	23.96923734
382.271	25.60143379
382.476	25.56026651
382.682	23.50379413
382.888	25.4189762
383.094	22.35802059
383.299	20.70994563
383.505	24.62371686
383.711	24.12519562
383.916	22.10256089
384.122	24.04670681
384.328	18.17957115
384.533	17.32865324
384.739	16.70280724
384.945	18.75393329
385.15	16.431516
385.356	16.38690377
385.562	16.58198872
385.767	20.38537921
385.973	16.04289209
386.178	18.33825221
386.384	16.76366711
386.589	17.05908054
386.795	14.11635236
387	15.52008806
387.206	12.56453509
387.411	13.77709743
387.617	14.98817739
387.822	12.68052465
388.028	11.85863993
388.233	14.66029392
388.439	15.0420279
388.644	18.04287837
388.85	18.56049517
389.055	18.57803027
389.26	16.56585607
389.466	16.08383185
389.671	16.34785341
389.877	16.24753737
390.082	14.08991439
390.287	14.19117928
390.493	12.45836364
390.698	11.77718029
390.903	11.75498554
391.109	14.48822255
391.314	15.61899437
391.519	15.98245064
391.724	15.221507
391.93	14.51847645
392.135	13.96559609
392.34	13.83159427
392.545	13.42494359
392.751	13.22450054
392.956	13.94025605
393.161	13.79496565
393.366	12.51554082
393.571	11.58878505
393.776	10.88384229
393.982	9.56104897
394.187	8.41016138
394.392	7.5288263
394.597	6.9690348
394.802	6.67556258
395.007	6.3114556
395.212	5.63988369
395.417	5.09770501
395.622	4.75797891
395.827	4.42260919
396.032	4.37094437
396.237	4.53099809
396.442	4.5892892
396.647	4.58535021
396.852	4.32289201
397.057	4.0938889
397.262	3.91645273
397.467	3.85371319
397.672	3.94626636
397.877	3.91716903
398.082	3.86833914
398.287	3.77884051
398.492	3.7454339
398.697	3.76965942
398.902	3.91163444
399.107	3.89680363
399.311	3.81074112
399.516	3.86862906
399.721	3.83493901
399.926	3.78326209
400.131	3.80218811
400.336	3.87075864
400.54	3.78337443
400.745	3.71377977
400.95	3.73091337
401.155	3.77144286
401.359	3.86188377
401.564	3.91447467
401.769	3.90480894
401.974	3.87165424
402.178	4.03756424
402.383	3.99114904
402.588	4.02822035
402.792	4.08513939
402.997	4.14114265
403.202	4.0559212
403.406	4.01965431
403.611	4.09893566
403.815	4.0417997
404.02	4.07737919
404.225	4.11202031
404.429	4.29966845
404.634	4.28988645
404.838	4.32333015
405.043	4.31593475
405.247	4.34252097
405.452	4.33398914
405.656	4.14436285
405.861	4.25695746
406.065	4.24517217
406.27	4.24763581
406.474	4.14405803
406.679	4.315873
406.883	4.18715885
407.088	4.0541817
407.292	3.96533026
407.497	4.08786753
407.701	4.22045694
407.905	4.21663976
408.11	4.24698008
408.314	4.287803
408.518	4.25698723
408.723	4.23103733
408.927	4.19935103
409.131	4.35167071
409.336	4.4505196
409.54	4.44230431
409.744	4.53002049
409.949	5.01378509
410.153	4.78399748
410.357	4.94274413
410.561	4.96172396
410.766	4.95002573
410.97	4.59309355
411.174	5.04250491
411.378	5.21586125
411.582	5.23477331
411.787	4.8394432
411.991	4.8370731
412.195	4.90295608
412.399	5.06713507
412.603	5.12287199
412.807	5.1342272
413.011	4.84622787
413.215	4.8275209
413.419	4.71525075
413.624	4.6573573
413.828	4.38177581
414.032	4.21521469
414.236	4.25315245
414.44	4.31201717
414.644	4.23750823
414.848	4.16785824
415.052	3.95520994
415.256	4.29617375
415.46	4.12648464
415.664	4.03461053
415.868	4.17020893
416.072	4.35113696
416.275	4.20669642
416.479	4.27383017
416.683	4.13117784
416.887	4.10397425
417.091	4.08530573
417.295	4.19808847
417.499	4.13926415
417.703	3.98411725
417.906	4.01928149
418.11	4.14712081
418.314	4.40065605
418.518	4.26498713
418.722	4.22053653
418.925	4.17805556
419.129	4.08814846
419.333	4.35444306
419.537	4.31643085
419.74	4.39099589
419.944	4.36158895
420.148	4.43080889
420.352	4.47662836
420.555	4.60991572
420.759	4.55223455
420.963	4.55093688
421.166	4.60657882
421.37	4.56859941
421.573	4.64910318
421.777	4.73564468
421.981	4.69134724
422.184	4.64698558
422.388	4.51041426
422.591	4.36142874
422.795	4.34972089
422.999	4.35461272
423.202	4.3122829
423.406	4.44871382
423.609	4.34803375
423.813	4.10789632
424.016	3.94958102
424.22	3.91437333
424.423	3.69581028
424.627	3.66127255
424.83	3.65340331
425.033	3.69092273
425.237	3.76119987
425.44	3.80492647
425.644	3.83516182
425.847	3.82306723
426.05	3.83110168
426.254	3.8917302
426.457	3.95607931
426.66	4.00441845
426.864	3.98906874
427.067	3.97361369
427.27	4.00897783
427.474	4.03553188
427.677	3.99671127
427.88	4.01020973
428.084	4.07736754
428.287	4.1126093
428.49	4.16117483
428.693	4.17863808
428.896	4.18154042
429.1	4.17636033
429.303	4.18365872
429.506	4.17379759
429.709	4.15403996
429.912	4.15918015
430.116	4.11706847
430.319	4.11218631
430.522	4.08581526
430.725	4.07624875
430.928	4.08727348
431.131	4.09450246
431.334	4.12350548
431.537	4.09705898
431.74	4.07337899
431.943	4.0949572
432.146	4.10918179
432.349	4.09319501
432.552	4.07977925
432.755	4.04262399
432.958	4.04413764
433.161	4.06041912
433.364	4.07913287
433.567	4.09899403
433.77	4.11852421
433.973	4.11247051
434.176	4.13255374
434.379	4.17769602
434.582	4.2080555
434.785	4.26380995
434.988	4.23778942
435.19	4.22770501
435.393	4.22878995
435.596	4.21480129
435.799	4.22357978
436.002	4.25391921
436.205	4.27004148
436.407	4.24848229
436.61	4.27209862
436.813	4.28286059
437.016	4.29946253
437.218	4.29911028
437.421	4.30596481
437.624	4.29392362
437.827	4.25077688
438.029	4.23865074
438.232	4.25279524
438.435	4.21882422
438.637	4.21788483
438.84	4.21423859
439.043	4.19869931
439.245	4.23986256
439.448	4.25492328
439.65	4.26322881
439.853	4.25116173
440.056	4.27359754
440.258	4.30324727
440.461	4.27688699
440.663	4.2736182
440.866	4.25313792
441.068	4.32430012
441.271	4.29894122
441.473	4.3128798
441.676	4.29082181
441.878	4.28728747
442.081	4.30305022
442.283	4.36137975
442.486	4.4310345
442.688	4.48135265
442.89	4.48101523
443.093	4.46547675
443.295	4.48199376
443.498	4.46922956
443.7	4.47098721
443.902	4.53490722
444.105	4.60653673
444.307	4.63076524
444.509	4.60325172
444.712	4.61569785
444.914	4.63342694
445.116	4.65198605
445.319	4.57761798
445.521	4.64129024
445.723	4.60575188
445.925	4.63373234
446.128	4.64642676
446.33	4.71764618
446.532	4.63553506
446.734	4.59740599
446.936	4.55630216
447.139	4.5943012
447.341	4.57192442
447.543	4.58877251
447.745	4.59336077
447.947	4.62765028
448.149	4.57610148
448.351	4.53170366
448.553	4.51639039
448.755	4.50887029
448.958	4.56455158
449.16	4.58717767
449.362	4.63778071
449.564	4.62875478
449.766	4.65671249
449.968	4.73748323
450.17	4.71500542
450.372	4.70059797
450.574	4.69112498
450.776	4.66489507
450.978	4.68509803
451.179	4.74739021
451.381	4.73706614
451.583	4.78007748
451.785	4.77905709
451.987	4.79196477
452.189	4.76176206
452.391	4.78220368
452.593	4.78869944
452.795	4.78669003
452.996	4.74830103
453.198	4.70827836
453.4	4.76049469
453.602	4.73781886
453.804	4.77007689
454.005	4.73525524
454.207	4.68525525
454.409	4.67262391
454.611	4.67437287
454.812	4.59061637
455.014	4.70974957
455.216	4.67614396
455.417	4.58094949
455.619	4.54399706
455.821	4.51761095
456.022	4.4966372
456.224	4.50654664
456.426	4.50213712
456.627	4.47698811
456.829	4.52284195
457.031	4.59893999
457.232	4.69694927
457.434	4.70015919
457.635	4.64608444
457.837	4.60804107
458.038	4.58065641
458.24	4.62121536
458.441	4.67005838
458.643	4.70945095
458.844	4.67727472
459.046	4.77222702
459.247	4.72836591
459.449	4.80885385
459.65	4.86717676
459.852	4.90145837
460.053	4.94560379
460.254	4.96928781
460.456	4.92228277
460.657	5.00642667
460.859	4.99251092
461.06	4.97711449
461.261	4.95894432
461.463	4.96396849
461.664	5.02558362
461.865	5.09414093
462.066	5.11602693
462.268	5.20213139
462.469	5.21826106
462.67	5.23809875
462.872	5.30677659
463.073	5.35414999
463.274	5.30783032
463.475	5.29716212
463.676	5.31767525
463.878	5.41086505
464.079	5.44963677
464.28	5.48713803
464.481	5.49264621
464.682	5.55819251
464.883	5.51626606
465.085	5.63865869
465.286	5.70325198
465.487	5.71200151
465.688	5.72065512
465.889	5.7400998
466.09	5.73605203
466.291	5.72885344
466.492	5.65588786
466.693	5.67736292
466.894	5.68890487
467.095	5.65202357
467.296	5.73921849
467.497	5.77653245
467.698	5.86269273
467.899	5.88741099
468.1	5.88804889
468.301	5.93391333
468.502	5.93094349
468.703	5.99948406
468.903	6.11598602
469.104	6.14954357
469.305	6.17121548
469.506	6.19471719
469.707	6.219792
469.908	6.25204915
470.109	6.22056755
470.309	6.22518178
470.51	6.36812909
470.711	6.48455961
470.912	6.56724095
471.112	6.51744766
471.313	6.54737291
471.514	6.55527243
471.715	6.65687324
471.915	6.73227782
472.116	6.72309504
472.317	6.71583668
472.517	6.72257345
472.718	6.79387178
472.919	6.82301147
473.119	6.83624325
473.32	6.93842631
473.521	6.94959199
473.721	6.99435324
473.922	6.95691231
474.122	6.97573382
474.323	7.07319393
474.523	7.0957843
474.724	7.04735406
474.925	7.06867978
475.125	7.06288957
475.326	7.17184508
475.526	7.23078959
475.727	7.24942123
475.927	7.24436787
476.127	7.22538521
476.328	7.21580511
476.528	7.28307434
476.729	7.32644407
476.929	7.32847263
477.13	7.34799219
477.33	7.34750275
477.53	7.35178198
477.731	7.35631355
477.931	7.34233945
478.131	7.39181681
478.332	7.43156934
478.532	7.44667435
478.732	7.48043769
478.933	7.51196204
479.133	7.52339831
479.333	7.52531363
479.533	7.51274981
479.734	7.52234571
479.934	7.53537629
480.134	7.55746934
480.334	7.55257819
480.534	7.57491169
480.735	7.57089023
480.935	7.54760927
481.135	7.54769074
481.335	7.55070928
481.535	7.5458053
481.735	7.54255842
481.935	7.56103711
482.136	7.56345827
482.336	7.55539421
482.536	7.56173262
482.736	7.55475317
482.936	7.54968194
483.136	7.54556292
483.336	7.54078915
483.536	7.54752758
483.736	7.54153159
483.936	7.54446817
484.136	7.55098571
484.336	7.53310071
484.536	7.53299656
484.736	7.54512997
484.936	7.53984622
485.135	7.55715705
485.335	7.56298473
485.535	7.55901164
485.735	7.57666203
485.935	7.57675353
486.135	7.57799564
486.335	7.58000899
486.534	7.59499696
486.734	7.58581656
486.934	7.60645945
487.134	7.6056043
487.334	7.6180854
487.533	7.60572948
487.733	7.59565172
487.933	7.61798615
488.133	7.60979682
488.332	7.61469985
488.532	7.62673316
488.732	7.64651395
488.931	7.65320404
489.131	7.66739437
489.331	7.68033375
489.53	7.67669943
489.73	7.69114937
489.93	7.69106661
490.129	7.69096409
490.329	7.67669276
490.528	7.68705416
490.728	7.68875008
490.928	7.69999206
491.127	7.68820516
491.327	7.70060412
491.526	7.72216718
491.726	7.77593548
491.925	7.78842308
492.125	7.79576937
492.324	7.79559111
492.524	7.79391947
492.723	7.79999307
492.922	7.79488596
493.122	7.79474704
493.321	7.78592175
493.521	7.78945415
493.72	7.78158642
493.919	7.76653666
494.119	7.75699858
494.318	7.76649244
494.517	7.8016601
494.717	7.80647279
494.916	7.81525254
495.115	7.81974719
495.315	7.81472106
495.514	7.79767575
495.713	7.74746759
495.912	7.70971756
496.112	7.73533078
496.311	7.73664519
496.51	7.72893721
496.709	7.74524388
496.908	7.73442224
497.108	7.73623304
497.307	7.72155306
497.506	7.72566036
497.705	7.72100721
497.904	7.77904144
498.103	7.8371655
498.302	7.84467395
498.501	7.87388053
498.701	7.86726031
498.9	7.88973757
499.099	7.89128048
499.298	7.9047293
499.497	7.88838971
499.696	7.91208629
499.895	7.96023139
500.094	7.97514676
500.293	7.95105179
500.492	7.93968507
500.691	8.05216922
500.89	8.0548734
501.088	8.11929175
501.287	8.15227998
501.486	8.22001465
501.685	8.24527403
501.884	8.23010975
502.083	8.2316776
502.282	8.19336886
502.481	8.19248313
502.679	8.16787438
502.878	8.14745144
503.077	8.20621959
503.276	8.25315044
503.475	8.12873548
503.673	8.12068516
503.872	8.08535221
504.071	8.13036509
504.27	8.11495597
504.468	8.15207379
504.667	8.2386929
504.866	8.12966132
505.064	8.05464081
505.263	7.92445023
505.462	7.84628182
505.66	7.74703799
505.859	7.74974048
506.058	7.79555891
506.256	7.82763527
506.455	7.78126891
506.653	7.80399672
506.852	7.72622722
507.05	7.79581961
507.249	7.78217164
507.448	7.69579649
507.646	7.74806775
507.845	7.77115312
508.043	7.85012469
508.242	7.81938983
508.44	7.80688499
508.638	7.73077663
508.837	7.73589653
509.035	7.7859823
509.234	7.7595333
509.432	7.80012162
509.631	7.91272217
509.829	7.84270918
510.027	7.86668714
510.226	7.8819174
510.424	7.76328868
510.622	7.85329701
510.821	7.87796167
511.019	7.93041815
511.217	7.81857918
511.415	7.71458497
511.614	7.59081847
511.812	7.74189589
512.01	7.88250136
512.208	7.9480374
512.407	7.83858206
512.605	7.99740661
512.803	8.18236854
513.001	8.06032914
513.199	7.83628748
513.398	8.00284423
513.596	8.05573807
513.794	8.08920102
513.992	8.20804185
514.19	8.19548135
514.388	8.23082887
514.586	8.2946323
514.784	8.28387352
514.982	8.1124635
515.18	8.22105073
515.378	8.24796508
515.576	8.16974175
515.774	8.18603841
515.972	8.04635685
516.17	7.95022184
516.368	7.81734962
516.566	7.91111913
516.764	7.76396955
516.962	7.59274392
517.16	7.53633341
517.358	7.72155194
517.556	7.76299773
517.754	7.73457431
517.952	7.6198922
518.149	7.62729397
518.347	7.55472062
518.545	7.43628964
518.743	7.46510643
518.941	7.32758293
519.138	7.67310677
519.336	7.54966854
519.534	7.67129199
519.732	7.82243917
519.929	7.95366123
520.127	7.89446961
520.325	7.83546171
520.523	7.95361005
520.72	7.98433168
520.918	8.01131441
521.116	8.01847579
521.313	8.14842506
521.511	8.2639169
521.709	8.15548548
521.906	8.19940903
522.104	8.25988009
522.301	8.12506447
522.499	8.24827868
522.696	8.23201219
522.894	8.21340667
523.092	8.3656386
523.289	8.2249396
523.487	8.27871263
523.684	8.15738669
523.882	8.00272188
524.079	7.94868132
524.276	8.02123595
524.474	8.12207599
524.671	8.04007094
524.869	8.03269272
525.066	8.01603554
525.264	7.95746458
525.461	7.91158896
525.658	7.89469886
525.856	7.88181172
526.053	7.80486772
526.25	7.70468367
526.448	7.6915511
526.645	7.58074648
526.842	7.65632953
527.039	7.65819879
527.237	7.60211088
527.434	7.4607092
527.631	7.48366395
527.828	7.44298894
528.026	7.46399646
528.223	7.46575293
528.42	7.42995049
528.617	7.36101286
528.814	7.35500639
529.012	7.29575957
529.209	7.21114735
529.406	7.2773398
529.603	7.21669374
529.8	7.17641058
529.997	7.16028187
530.194	7.15929208
530.391	7.17479608
530.588	7.19625635
530.785	7.20862365
530.982	7.16075079
531.179	7.14343509
531.376	7.12010843
531.573	7.11345756
531.77	7.05445211
531.967	7.05590881
532.164	7.02981533
532.361	6.99181646
532.558	6.98422422
532.755	6.96956846
532.952	6.96546283
533.149	6.96418127
533.346	6.97067101
533.543	6.94905583
533.739	6.93578493
533.936	6.93248552
534.133	6.93859817
534.33	6.94216507
534.527	6.93219458
534.723	6.93221461
534.92	6.92562653
535.117	6.92255512
535.314	6.91236569
535.51	6.91630166
535.707	6.91479077
535.904	6.92173323
536.1	6.92200769
536.297	6.92684353
536.494	6.93657448
536.69	6.93416152
536.887	6.93917443
537.084	6.94286978
537.28	6.9383349
537.477	6.94386388
537.674	6.94552396
537.87	6.95534562
538.067	6.95859326
538.263	6.95830766
538.46	6.95744034
538.656	6.96018359
538.853	6.95804651
539.049	6.9607355
539.246	6.9662342
539.442	6.96863219
539.639	6.9698537
539.835	6.97512372
540.032	6.97943603
540.228	6.97757065
540.424	6.97780012
540.621	6.97960541
540.817	6.98153183
541.014	6.98769614
541.21	6.98329464
541.406	6.98903189
541.603	6.98929495
541.799	6.99091078
541.995	6.98839948
542.191	6.98633959
542.388	6.98308188
542.584	6.98119209
542.78	6.97941416
542.976	6.97809777
543.173	6.97478794
543.369	6.97191704
543.565	6.97305051
543.761	6.96681835
543.957	6.96217693
544.154	6.95658166
544.35	6.9586693
544.546	6.95849682
544.742	6.95120726
544.938	6.94931248
545.134	6.94309238
545.33	6.94221269
545.526	6.93271852
545.722	6.92849318
545.919	6.92337692
546.115	6.9191748
546.311	6.916969
546.507	6.91371125
546.703	6.9097816
546.899	6.90921791
547.095	6.90321322
547.29	6.90303367
547.486	6.9008271
547.682	6.89397973
547.878	6.89155816
548.074	6.88888858
548.27	6.89234251
548.466	6.88852202
548.662	6.88898277
548.858	6.89282434
549.053	6.89512705
549.249	6.88787906
549.445	6.88606825
549.641	6.89121886
549.837	6.89356004
550.032	6.89969873
550.228	6.90581913
550.424	6.90815122
550.62	6.90673628
550.815	6.90890495
551.011	6.90728484
551.207	6.9217844
551.402	6.93122728
551.598	6.92484573
551.794	6.93319864
551.989	6.93913901
552.185	6.95597384
552.381	6.95407276
552.576	6.96232662
552.772	6.95581701
552.967	6.95320594
553.163	6.95125067
553.359	6.96602702
553.554	6.98026856
553.75	6.97766734
553.945	6.97239288
554.141	6.9913465
554.336	6.99840274
554.532	6.99785988
554.727	7.00327139
554.922	7.03151479
555.118	7.05198019
555.313	7.04757604
555.509	7.0317609
555.704	7.04969353
555.899	7.05403949
556.095	7.08846246
556.29	7.09363721
556.486	7.0930999
556.681	7.08498017
556.876	7.10042934
557.071	7.15117769
557.267	7.17067166
557.462	7.20550486
557.657	7.2113965
557.853	7.26937659
558.048	7.29367034
558.243	7.24840546
558.438	7.2463246
558.633	7.24922644
558.829	7.33760491
559.024	7.32116956
559.219	7.37532241
559.414	7.44684644
559.609	7.46700782
559.804	7.51810972
559.999	7.59402369
560.194	7.66827519
560.39	7.68499945
560.585	7.78416874
560.78	7.93783519
560.975	8.01356104
561.17	8.10663722
561.365	8.18853054
561.56	8.20816701
561.755	8.33318144
561.95	8.44061681
562.145	8.56928536
562.34	8.76790553
562.535	8.8574194
562.729	9.01064591
562.924	9.14327065
563.119	9.23091832
563.314	9.25196478
563.509	9.30643468
563.704	9.56072156
563.899	9.67510401
564.093	9.85595907
564.288	9.87311184
564.483	10.05554414
564.678	10.21369903
564.873	10.32317825
565.067	10.38198841
565.262	10.34815433
565.457	10.53720556
565.652	10.74392238
565.846	10.78244427
566.041	10.95831951
566.236	10.97277762
566.43	11.14365499
566.625	11.3818361
566.82	11.51010057
567.014	11.59472951
567.209	11.83883405
567.404	12.22975265
567.598	12.3989514
567.793	12.43785396
567.987	12.66266855
568.182	12.82128468
568.376	12.95991355
568.571	13.10209874
568.765	13.14932765
568.96	13.22749377
569.154	13.42156317
569.349	13.63138235
569.543	13.82436374
569.738	13.96663576
569.932	14.17914886
570.127	14.33426908
570.321	14.49546758
570.515	14.56580417
570.71	14.71278906
570.904	14.86669251
571.098	15.02873973
571.293	15.21853098
571.487	15.3026971
571.681	15.47732022
571.876	15.6520664
572.07	15.77606956
572.264	15.87062026
572.458	16.02752941
572.653	16.19481139
572.847	16.39832623
573.041	16.55406967
573.235	16.73403281
573.43	16.91440162
573.624	17.06497799
573.818	17.25203023
574.012	17.41078332
574.206	17.56920926
574.4	17.78048477
574.594	17.98905583
574.788	18.16640713
574.983	18.36523524
575.177	18.52286213
575.371	18.71185833
575.565	18.88687745
575.759	19.05830468
575.953	19.2065945
576.147	19.39446281
576.341	19.57882374
576.535	19.7789318
576.729	19.96972514
576.923	20.15559835
577.117	20.3750452
577.31	20.56652769
577.504	20.77622878
577.698	20.97672071
577.892	21.15607872
578.086	21.34795964
578.28	21.54108895
578.474	21.71025695
578.668	21.9055809
578.861	22.0856819
579.055	22.27055657
579.249	22.45884321
579.443	22.62035557
579.636	22.79903264
579.83	22.9604251
580.024	23.15617524
580.218	23.30837717
580.411	23.46410793
580.605	23.6277611
580.799	23.7903764
580.992	23.95344458
581.186	24.11679574
581.38	24.27921139
581.573	24.43408827
581.767	24.60040217
581.961	24.77611613
582.154	24.94592183
582.348	25.13388672
582.541	25.33613863
582.735	25.50551903
582.928	25.73077374
583.122	25.92981966
583.315	26.16868902
583.509	26.39819881
583.702	26.6214479
583.896	26.86124909
584.089	27.1189794
584.283	27.3700811
584.476	27.63676668
584.67	27.87860614
584.863	28.11894941
585.056	28.35922238
585.25	28.5947807
585.443	28.82816755
585.636	29.0771565
585.83	29.31456618
586.023	29.56093394
586.216	29.79699602
586.41	30.01871814
586.603	30.26369722
586.796	30.50362764
586.989	30.72242798
587.183	30.94717367
587.376	31.16163951
587.569	31.39022073
587.762	31.62444463
587.955	31.8405543
588.149	32.03197159
588.342	32.26184895
588.535	32.48460183
588.728	32.70455258
588.921	32.93927449
589.114	33.18264583
589.307	33.41411912
589.5	33.6893548
589.693	33.93854981
589.886	34.1971909
590.08	34.46198972
590.273	34.75515293
590.466	35.02750762
590.659	35.28342399
590.852	35.55448845
591.044	35.81915341
591.237	36.0760362
591.43	36.36457419
591.623	36.60992809
591.816	36.85323357
592.009	37.14429916
592.202	37.43491367
592.395	37.70775997
592.588	37.98327218
592.781	38.28455087
592.973	38.55167693
593.166	38.80384142
593.359	39.08355302
593.552	39.33643628
593.745	39.58240865
593.937	39.83840413
594.13	40.0545752
594.323	40.29390821
594.515	40.52178491
594.708	40.75989001
594.901	40.98941814
595.094	41.22579895
595.286	41.49020011
595.479	41.6980237
595.672	41.94851557
595.864	42.16924238
596.057	42.37889797
596.249	42.5813136
596.442	42.81020663
596.635	43.00294488
596.827	43.18367026
597.02	43.37637489
597.212	43.62884078
597.405	43.82139599
597.597	43.99941418
597.79	44.21385089
597.982	44.45697462
598.175	44.68437249
598.367	44.91535589
598.559	45.17587954
598.752	45.37981245
598.944	45.63263305
599.137	45.8589826
599.329	46.09975954
599.521	46.32469734
599.714	46.54502
599.906	46.84734264
600.098	47.08850792
600.291	47.41003194
600.483	47.7408227
600.675	48.07349676
600.868	48.41513198
601.06	48.74075108
601.252	49.09177119
601.444	49.41660927
601.637	49.7186472
601.829	50.0078735
602.021	50.20813594
602.213	50.39433579
602.405	50.56807029
602.597	50.72636356
602.789	50.87221342
602.982	50.99509557
603.174	51.12272489
603.366	51.23126022
603.558	51.3201754
603.75	51.40292187
603.942	51.46797241
604.134	51.5437062
604.326	51.60185712
604.518	51.64236793
604.71	51.68490219
604.902	51.73265596
605.094	51.79414985
605.286	51.83445792
605.478	51.87395739
605.67	51.92391374
605.862	51.942339
606.054	51.98355705
606.246	52.02126616
606.437	52.06062089
606.629	52.08378251
606.821	52.1064924
607.013	52.13928321
607.205	52.15560053
607.397	52.16660187
607.588	52.19323877
607.78	52.21795371
607.972	52.24165597
608.164	52.26442784
608.355	52.27740704
608.547	52.29172404
608.739	52.30858688
608.93	52.32327452
609.122	52.33191988
609.314	52.33217723
609.505	52.33683306
609.697	52.32954133
609.889	52.34444049
610.08	52.34506835
610.272	52.36381016
610.463	52.36084412
610.655	52.37105226
610.847	52.37335029
611.038	52.37466965
611.23	52.38818435
611.421	52.3912352
611.613	52.40048912
611.804	52.40917412
611.996	52.41257022
612.187	52.40848216
612.379	52.41101923
612.57	52.43653066
612.761	52.45298684
612.953	52.46820809
613.144	52.48106154
613.336	52.49033381
613.527	52.51740703
613.718	52.539468
613.91	52.56382523
614.101	52.57857753
614.292	52.58219842
614.483	52.60031384
614.675	52.62205528
614.866	52.65579683
615.057	52.66067835
615.248	52.67349152
615.44	52.71264418
615.631	52.72510825
615.822	52.75489317
616.013	52.77586732
616.204	52.81517218
616.396	52.84170688
616.587	52.8509079
616.778	52.88789083
616.969	52.90978163
617.16	52.92928465
617.351	52.96212186
617.542	52.98127354
617.733	53.01108857
617.924	53.03406668
618.115	53.08677564
618.306	53.14732365
618.497	53.20297368
618.688	53.25433237
618.879	53.29410025
619.07	53.36150003
619.261	53.41070175
619.452	53.46591045
619.643	53.53827828
619.834	53.58920436
620.025	53.66659468
620.216	53.72960821
620.407	53.79527286
620.597	53.87701835
620.788	53.94372087
620.979	54.03037508
621.17	54.13714239
621.361	54.23348668
621.551	54.32628737
621.742	54.41684636
621.933	54.5143025
622.124	54.5899442
622.314	54.6337636
622.505	54.67462703
622.696	54.73171533
622.886	54.80783776
623.077	54.85932972
623.268	54.93810459
623.458	54.97899854
623.649	55.00404141
623.84	55.04311051
624.03	55.09561768
624.221	55.15436551
624.411	55.21864397
624.602	55.2657241
624.792	55.28863907
624.983	55.32864273
625.173	55.38450374
625.364	55.44062573
625.554	55.48692258
625.745	55.53732501
625.935	55.57395821
626.126	55.62638777
626.316	55.68851286
626.507	55.74644361
626.697	55.7799096
626.887	55.78705948
627.078	55.83435052
627.268	55.87170069
627.458	55.94039414
627.649	56.00300281
627.839	56.06145008
628.029	56.10233787
628.22	56.14749916
628.41	56.19377514
628.6	56.22099712
628.79	56.27439946
628.981	56.3228752
629.171	56.33693708
629.361	56.3578894
629.551	56.39654001
629.741	56.41962036
629.932	56.44490727
630.122	56.44208135
630.312	56.48929788
630.502	56.55850117
630.692	56.61055038
630.882	56.71177058
631.072	56.77959482
631.262	56.84305103
631.452	56.8772292
631.642	56.93906843
631.832	56.98434917
632.022	57.05728299
632.212	57.0895974
632.402	57.16241466
632.592	57.27431912
632.782	57.33375211
632.972	57.34800661
633.162	57.43209761
633.352	57.56205891
633.542	57.6056892
633.732	57.66298582
633.922	57.72701344
634.111	57.86761627
634.301	57.89883457
634.491	57.94528396
634.681	58.03218738
634.871	58.13039059
635.06	58.21725867
635.25	58.3131869
635.44	58.44373758
635.63	58.58108848
635.819	58.69978136
636.009	58.82986858
636.199	58.94820561
636.388	59.03893105
636.578	59.12632386
636.768	59.27395117
636.957	59.46387373
637.147	59.55267862
637.337	59.62998426
637.526	59.79124338
637.716	59.9749158
637.905	60.19926292
638.095	60.28614444
638.284	60.44069123
638.474	60.5773106
638.663	60.75641165
638.853	60.95286122
639.042	61.10471391
639.232	61.21574061
639.421	61.29503761
639.611	61.39715848
639.8	61.5761171
639.99	61.81251727
640.179	62.03699081
640.368	62.24238254
640.558	62.49061419
640.747	62.71715261
640.936	63.01612864
641.126	63.17520976
641.315	63.37610263
641.504	63.64645549
641.694	63.86914432
641.883	64.01361293
642.072	64.24084239
642.261	64.41825621
642.451	64.64913717
642.64	64.80798103
642.829	64.80823245
643.018	64.97116152
643.207	65.15191037
643.397	65.31074701
643.586	65.45512964
643.775	65.59123562
643.964	65.60548574
644.153	65.70249756
644.342	65.77930775
644.531	65.77187186
644.72	65.76300627
644.909	65.80670957
645.098	65.89943038
645.287	65.94986818
645.476	65.9829068
645.665	65.97164592
645.854	66.01017686
646.043	66.07114425
646.232	66.20484327
646.421	66.19525414
646.61	66.22859664
646.799	66.44926365
646.988	66.50863725
647.177	66.49073152
647.365	66.61510478
647.554	66.72975015
647.743	66.78694307
647.932	66.83596404
648.121	66.91393818
648.309	66.99840188
648.498	67.12525955
648.687	67.28449561
648.876	67.2463869
649.064	67.32148356
649.253	67.32929558
649.442	67.39964627
649.63	67.48104101
649.819	67.64274775
650.008	67.65970527
650.196	67.724824
650.385	67.70620275
650.574	67.81544258
650.762	67.70238196
650.951	67.76444033
651.139	67.86897127
651.328	67.88581052
651.516	67.75396052
651.705	67.82833943
651.893	67.92649196
652.082	67.91397918
652.27	67.95197724
652.459	68.05371535
652.647	68.14699535
652.836	68.35692602
653.024	68.46158163
653.213	68.64648287
653.401	68.66911911
653.589	68.64962613
653.778	68.65490704
653.966	68.72761102
654.154	68.69638128
654.343	68.85315942
654.531	68.93224039
654.719	69.09035047
654.908	69.20622404
655.096	69.33123891
655.284	69.31573361
655.472	69.55832622
655.661	69.52688371
655.849	69.56358974
656.037	69.67275587
656.225	69.75560042
656.413	69.64601667
656.601	69.63202191
656.79	69.74503195
656.978	69.82927325
657.166	69.90088722
657.354	70.10712185
657.542	70.2920481
657.73	70.36253699
657.918	70.47900522
658.106	70.69274317
658.294	70.7794393
658.482	70.74379653
658.67	70.78359214
658.858	70.82864399
659.046	70.82999795
659.234	70.99427591
659.422	71.04867675
659.61	71.0893136
659.798	71.11606365
659.986	71.16791846
660.173	71.27445863
660.361	71.49351922
660.549	71.63712349
660.737	71.63704621
660.925	71.61401886
661.113	71.52300443
661.3	71.49662219
661.488	71.55725664
661.676	71.56632594
661.864	71.71395332
662.051	71.50215688
662.239	71.6030301
662.427	71.69940671
662.614	71.7971361
662.802	71.76678091
662.99	71.93545124
663.177	71.98121578
663.365	72.04294273
663.553	72.35156343
663.74	72.41328012
663.928	72.3711604
664.115	72.40162386
664.303	72.33002856
664.49	72.25982903
664.678	72.34912197
664.866	72.38905878
665.053	72.58759924
665.24	72.58368634
665.428	72.64962511
665.615	72.7281787
665.803	72.66323359
665.99	72.91820124
666.178	72.98233127
666.365	73.13405442
666.552	73.0712883
666.74	73.18992732
666.927	73.19045454
667.114	73.17697501
667.302	73.42903289
667.489	73.39939606
667.676	73.65902679
667.864	73.69409888
668.051	73.56581131
668.238	73.81205158
668.425	74.14397043
668.613	74.08550823
668.8	74.10136155
668.987	74.16840051
669.174	74.29631014
669.361	74.44551453
669.548	74.28998902
669.736	74.2358717
669.923	74.3285545
670.11	74.239561
670.297	74.17537001
670.484	74.3383888
670.671	74.38209198
670.858	74.30255372
671.045	74.28488554
671.232	74.16696413
671.419	74.15953901
671.606	74.03259058
671.793	74.25017299
671.98	74.39957949
672.167	74.29865392
672.354	74.2068002
672.541	74.4771142
672.728	74.67855036
672.915	74.50435503
673.101	74.41508857
673.288	74.42418675
673.475	74.86218695
673.662	74.93924357
673.849	74.86789262
674.035	74.88593756
674.222	74.89115858
674.409	74.83395242
674.596	74.88700275
674.783	75.16485721
674.969	75.28601242
675.156	75.25644863
675.343	75.29970918
675.529	75.12400522
675.716	75.06156856
675.903	75.12442446
676.089	75.29468503
676.276	75.16650701
676.462	75.1339396
676.649	75.08903361
676.836	75.25932064
677.022	75.40049759
677.209	75.28934481
677.395	75.03459393
677.582	75.28624372
677.768	75.3661025
677.955	75.30648957
678.141	75.36942971
678.328	75.46686464
678.514	75.43547508
678.701	75.27756491
678.887	75.43758959
679.073	75.30227481
679.26	75.36597458
679.446	75.50793993
679.632	75.5168246
679.819	75.66641724
680.005	75.49677973
680.191	75.57701668
680.378	75.39975843
680.564	75.39695189
680.75	75.440907
680.936	75.30339308
681.123	75.24640487
681.309	75.4338263
681.495	75.29770204
681.681	75.34628961
681.867	75.42054085
682.054	75.57802905
682.24	75.57704526
682.426	75.60051149
682.612	75.55254818
682.798	75.43395591
682.984	75.55841041
683.17	75.55759094
683.356	75.59973744
683.542	75.49206923
683.728	75.40046801
683.914	75.59326208
684.1	75.4470159
684.286	75.46822544
684.472	75.46488241
684.658	75.45946751
684.844	75.45180057
685.03	75.49633652
685.216	75.39162957
685.402	75.50351616
685.588	75.53232068
685.774	75.54507679
685.96	75.3921094
686.145	75.39784091
686.331	75.44042959
686.517	75.45615787
686.703	75.50332809
686.889	75.45061564
687.074	75.32081262
687.26	75.27998347
687.446	75.45024287
687.631	75.34551725
687.817	75.24146602
688.003	75.47056218
688.189	75.57505224
688.374	75.46500754
688.56	75.26175344
688.745	75.60881744
688.931	75.68851465
689.117	75.54141827
689.302	75.65607178
689.488	75.61850652
689.673	75.67186093
689.859	75.7840882
690.044	75.86836938
690.23	75.89933637
690.415	76.01610523
690.601	75.94326596
690.786	75.72208106
690.972	75.82252838
691.157	76.08438336
691.343	76.17200429
691.528	76.31285793
691.713	76.44829141
691.899	76.29713426
692.084	76.20920069
692.269	76.47969401
692.455	76.56886813
692.64	76.30113991
692.825	76.43361669
693.011	76.67065825
693.196	76.33261331
693.381	76.27648103
693.566	76.15886287
693.752	76.20994599
693.937	76.31016273
694.122	76.27263852
694.307	76.09812489
694.492	76.15657777
694.678	76.62561937
694.863	76.66337251
695.048	76.39278901
695.233	76.36658654
695.418	76.59060485
695.603	76.45459203
695.788	76.5308056
695.973	76.5073518
696.158	76.53278822
696.343	76.63722339
696.528	76.48880699
696.713	76.48065026
696.898	76.48290593
697.083	76.64333717
697.268	76.45525837
697.453	76.59168057
697.638	76.37655417
697.823	76.30619424
698.008	76.36493146
698.192	76.49596203
698.377	76.57335004
698.562	76.73749844
698.747	76.53449576
698.932	76.424812
699.117	76.32131872
699.301	76.2744366
699.486	76.3858171
699.671	76.51696235
699.856	76.59270371
700.04	76.54139897
700.225	76.55271205
700.41	76.4832034
700.594	76.36955349
700.779	76.36660133
700.964	76.23639065
701.148	76.27431361
701.333	76.335386
701.517	76.3475194
701.702	76.24058174
701.887	76.20401278
702.071	76.1800457
702.256	76.05772543
702.44	75.93637924
702.625	75.97773958
702.809	76.06131059
702.994	76.17302987
703.178	76.08466291
703.362	76.12114462
703.547	75.99122784
703.731	75.91653444
703.916	75.84309586
704.1	75.88866676
704.284	75.99397412
704.469	75.95512392
704.653	75.98894653
704.837	76.0782425
705.022	76.01942771
705.206	75.94129935
705.39	76.02271756
705.575	76.02601053
705.759	75.95125265
705.943	76.02668901
706.127	76.03929066
706.311	76.08064816
706.496	76.1467114
706.68	76.16311892
706.864	76.03115694
707.048	76.1237055
707.232	76.1311309
707.416	76.26116848
707.6	76.36877082
707.785	76.36030662
707.969	76.32257751
708.153	76.31468237
708.337	76.35835527
708.521	76.35045815
708.705	76.27396185
708.889	76.45770734
709.073	76.41366154
709.257	76.40808768
709.441	76.3849594
709.624	76.53204041
709.808	76.45595243
709.992	76.52036406
710.176	76.57251847
710.36	76.47210139
710.544	76.42641433
710.728	76.51188463
710.912	76.59104723
711.095	76.54672514
711.279	76.47602678
711.463	76.34952917
711.647	76.55067668
711.83	76.65222849
712.014	76.65143085
712.198	76.67844981
712.382	76.68067588
712.565	76.73886886
712.749	76.50125397
712.933	76.61065457
713.116	76.48625361
713.3	76.64004506
713.483	76.51100218
713.667	76.63078451
713.851	76.77501004
714.034	76.8239542
714.218	77.00289356
714.401	77.04241671
714.585	76.97847132
714.768	76.92181934
714.952	76.80920566
715.135	76.92986599
715.319	77.0735301
715.502	76.69481457
715.686	76.67951683
715.869	76.54987194
716.052	76.86029492
716.236	76.72914278
716.419	76.83536387
716.602	77.46102656
716.786	77.54809805
716.969	77.86818692
717.152	77.89575934
717.336	78.20510354
717.519	78.24001626
717.702	77.91552575
717.885	78.01290893
718.069	78.65950404
718.252	78.6374026
718.435	79.61967459
718.618	79.59417165
718.801	80.15386006
718.985	79.90720427
719.168	80.04052234
719.351	80.41038418
719.534	79.98963513
719.717	80.8017725
719.9	80.56187795
720.083	81.45003725
720.266	81.41720049
720.449	80.76144188
720.632	80.39359855
720.815	80.90188673
720.998	80.76649637
721.181	80.94872713
721.364	79.65691818
721.547	81.75859313
721.73	80.50979619
721.913	79.0009918
722.096	79.50285473
722.279	78.61419541
722.461	78.1004695
722.644	75.88893585
722.827	76.0757826
723.01	76.26351289
723.193	77.55847544
723.376	77.92797015
723.558	77.78469197
723.741	76.93241526
723.924	76.12582968
724.107	77.9321719
724.289	77.69314472
724.472	78.68646727
724.655	77.88324902
724.837	79.44209539
725.02	78.88693415
725.203	79.87707159
725.385	78.24454001
725.568	78.06959824
725.75	78.90019979
725.933	79.06449112
726.115	78.94626564
726.298	79.06851528
726.481	81.82503334
726.663	81.85420123
726.845	81.93914509
727.028	82.54623352
727.21	82.3935513
727.393	82.93009958
727.575	83.61313504
727.758	84.12527655
727.94	82.10603679
728.122	82.74247353
728.305	84.26297752
728.487	84.53721043
728.67	83.68597234
728.852	84.57364176
729.034	84.44368352
729.216	84.7834928
729.399	85.92749153
729.581	84.76399889
729.763	84.05969389
729.945	85.71428571
730.128	84.53617039
730.31	83.8687407
730.492	83.5495144
730.674	83.05800333
730.856	81.26404074
731.039	81.47381584
731.221	81.35686824
731.403	81.91742212
731.585	81.68489644
731.767	82.72246935
731.949	80.8040897
732.131	78.94916685
732.313	79.33794327
732.495	78.81727602
732.677	78.69682305
732.859	78.43003823
733.041	78.63121517
733.223	77.87330407
733.405	79.14015615
733.587	80.50241391
733.769	79.18146994
733.951	80.22656449
734.132	80.18344008
734.314	80.32353339
734.496	82.16025305
734.678	83.71354814
734.86	84.33229784
735.042	83.71396623
735.223	83.1619805
735.405	85.09158531
735.587	83.71583888
735.769	86.64107126
735.95	87.20205625
736.132	85.91301828
736.314	87.36775932
736.495	86.86680852
736.677	87.09040101
736.859	86.77964904
737.04	87.03520381
737.222	86.65277945
737.403	86.5476334
737.585	86.0485402
737.767	85.92428754
737.948	85.95233678
738.13	85.9631199
738.311	85.18573576
738.493	84.83583983
738.674	84.66147692
738.856	84.82498044
739.037	84.18290731
739.219	81.75879315
739.4	83.19892252
739.581	82.20213853
739.763	82.42540779
739.944	83.61089648
740.125	82.48064542
740.307	83.34226205
740.488	83.20902192
740.669	83.17584659
740.851	82.75146223
741.032	83.10626252
741.213	82.27516319
741.395	83.25921918
741.576	83.68610462
741.757	82.97802784
741.938	83.04848932
742.119	82.48861291
742.301	81.70688221
742.482	81.75898549
742.663	82.32582936
742.844	84.07112073
743.025	85.21677454
743.206	84.72362701
743.387	84.44300215
743.568	83.72654687
743.749	83.49009767
743.93	84.12800411
744.111	83.67478418
744.292	83.85624643
744.473	84.98595166
744.654	86.16700294
744.835	86.30753431
745.016	87.02955362
745.197	85.91942856
745.378	85.49294476
745.559	86.31602532
745.74	86.4318024
745.921	86.94839264
746.102	87.23678887
746.282	88.16158447
746.463	88.26443692
746.644	87.76592598
746.825	89.38891235
747.006	90.29671857
747.186	91.50578368
747.367	92.52699784
747.548	92.54236588
747.728	91.07946489
747.909	92.56291239
748.09	93.04543025
748.27	92.23744292
748.451	92.01944895
748.632	91.42572067
748.812	91.78229797
748.993	92.22269443
749.173	92.38955687
749.354	92.18153478
749.535	92.74009962
749.715	93.58188358
749.896	94.31297971
750.076	92.89939508
750.257	92.37998876
750.437	92.17986535
750.618	91.00503292
750.798	90.89950113
750.978	90.01772778
751.159	90.06776464
751.339	90.21660253
751.52	90.9074971
751.7	90.19302682
751.88	91.31364628
752.061	91.09355937
752.241	91.45780714
752.421	91.99870564
752.601	91.15339641
752.782	88.97325642
752.962	89.50711755
753.142	91.26588927
753.322	90.19051395
753.503	88.72105362
753.683	88.70721559
753.863	88.33533035
754.043	88.45277656
754.223	87.94186217
754.403	87.4934259
754.583	86.89290361
754.764	86.75732172
754.944	87.22160659
755.124	86.79962013
755.304	85.65319078
755.484	84.67824079
755.664	83.44147713
755.844	82.64451494
756.024	81.61647075
756.204	81.50353202
756.384	80.90331485
756.564	83.82484361
756.743	83.2162526
756.923	81.86664719
757.103	82.2141333
757.283	83.09819485
757.463	83.42331637
757.643	83.1700243
757.823	83.98926417
758.002	84.18190936
758.182	83.12109531
758.362	83.29198811
758.542	81.54885235
758.721	81.35933389
758.901	81.1702442
759.081	82.74719605
759.261	82.85047371
759.44	83.52477757
759.62	82.78277437
759.8	84.43596149
759.979	84.07229518
760.159	84.00929269
760.338	83.95137973
760.518	84.30914667
760.698	83.37729374
760.877	82.28614035
761.057	80.4610787
761.236	80.23603866
761.416	80.22481626
761.595	78.25483563
761.775	78.45335967
761.954	79.74184505
762.133	80.07916703
762.313	82.63410379
762.492	82.1805495
762.672	82.70268676
762.851	83.75866647
763.03	83.99802481
763.21	84.93887951
763.389	88.27116315
763.568	86.90693559
763.748	88.23346787
763.927	88.33673384
764.106	88.19419314
764.286	88.40059041
764.465	90.28341214
764.644	90.5246888
764.823	93.14357472
765.002	92.69789894
765.182	93.72619875
765.361	94.32066043
765.54	94.62679176
765.719	95.01792017
765.898	93.24120534
766.077	92.46528816
766.256	92.49789419
766.435	91.76951413
766.614	91.88314316
766.793	92.96346776
766.972	92.88839371
767.151	91.5945579
767.33	90.82911577
767.509	89.7960247
767.688	91.92368925
767.867	92.78082822
768.046	92.45758887
768.225	91.34767776
768.404	92.77463555
768.583	90.97837881
768.762	90.43375536
768.94	91.81607202
769.119	92.44392273
769.298	92.44697494
769.477	91.46689278
769.656	94.45372965
769.834	94.53402924
770.013	93.193771
770.192	92.66617108
770.37	91.97005171
770.549	92.25875982
770.728	90.4945724
770.906	89.71451334
771.085	90.03992604
771.264	89.37396363
771.442	88.43422477
771.621	86.66719272
771.799	86.10191049
771.978	85.94123991
772.157	84.5462499
772.335	85.20882439
772.514	86.04517768
772.692	83.80998941
772.871	82.93031829
773.049	84.81744955
773.228	85.23174254
773.406	81.94711864
773.584	81.95808688
773.763	83.13276131
773.941	83.74395012
774.119	85.62810212
774.298	83.54730184
774.476	84.08948813
774.655	84.29437512
774.833	85.87829447
775.011	85.87087213
775.189	85.53888522
775.368	86.96079281
775.546	87.40418784
775.724	87.92958684
775.902	90.50712921
776.08	90.27099865
776.259	89.88490022
776.437	89.40676698
776.615	89.52586336
776.793	86.58532912
776.971	86.135932
777.149	88.18803365
777.327	89.18415984
777.505	87.18740948
777.683	87.44354706
777.861	83.35757458
778.04	85.90211353
778.218	85.87123565
778.395	85.09005019
778.573	83.76633907
778.751	85.54660754
778.929	84.76619463
779.107	82.04272582
779.285	81.93508879
779.463	81.00653118
779.641	79.35859866
779.819	80.59172762
779.997	79.48321773
780.174	81.77710347
780.352	83.97493286
780.53	83.68626678
780.708	84.05018508
780.886	84.16046184
781.063	82.61940561
781.241	84.01070036
781.419	83.26671216
781.596	85.01688568
781.774	83.96531913
781.952	84.28688847
782.129	85.84847718
782.307	84.46634562
782.485	82.7348015
782.662	83.74594698
782.84	84.77480607
783.017	84.80657526
783.195	85.00492611
783.372	86.32586046
783.55	87.85291113
783.727	88.42270123
783.905	85.77006323
784.082	86.28047456
784.26	85.55104227
784.437	85.96705033
784.615	85.90205833
784.792	85.12830389
784.969	85.07216701
785.147	85.94499117
785.324	86.87171793
785.501	84.31575319
785.679	84.68324777
785.856	83.26015645
786.033	85.88553181
786.211	88.40282296
786.388	89.07095685
786.565	90.64791867
786.742	90.51278188
786.92	92.4609113
787.097	88.83881628
787.274	88.12426066
787.451	90.70062402
787.628	92.95658024
787.805	91.73729915
787.982	91.77555726
788.16	93.25427784
788.337	90.57096589
788.514	93.65828891
788.691	95.32023475
788.868	94.90403706
789.045	91.36709525
789.222	97.24134193
789.399	95.61559618
789.576	95.14463341
789.753	94.3950039
789.93	93.15532734
790.106	92.56541323
790.283	92.34057359
790.46	91.92975434
790.637	90.3758737
790.814	92.90394677
790.991	92.44664211
791.168	91.56914755
791.344	89.88408313
791.521	88.98807961
791.698	90.12847617
791.875	86.52451797
792.051	91.69525677
792.228	89.03421067
792.405	87.40178242
792.581	88.13004697
792.758	91.18926568
792.935	87.57146536
793.111	86.70330235
793.288	86.30727476
793.465	87.10252119
793.641	86.82618985
793.818	87.95995527
793.994	87.32120689
794.171	89.84405567
794.347	90.49612848
794.524	87.5383671
794.7	86.57670063
794.877	85.73347512
795.053	83.66701791
795.23	85.71428571
795.406	85.82020389
795.583	88.61295172
795.759	81.31338047
795.935	82.77227723
796.112	82.65312013
796.288	82.86289164
796.464	82.68021008
796.641	80.51384528
796.817	83.31945601
796.993	86.01994762
797.169	82.93048931
797.346	83.30038968
797.522	83.16647519
797.698	81.26740581
797.874	76.40782151
798.051	73.40154729
798.227	73.01904714
798.403	72.97802475
798.579	71.19216817
798.755	73.18496899
798.931	71.37434351
799.107	75.61493449
799.283	74.93261456
799.459	81.35575352
799.635	81.5027366
799.811	82.98239197
799.987	81.61305313
800.163	79.61105737
800.339	83.67879625
800.515	83.9172234
800.691	85.33587743
800.867	87.40001135
801.043	87.22690001
801.219	84.73337394
801.395	88.9901201
801.571	94.09334986
801.746	100.74369672
801.922	103.6328423
802.098	100.91421689
802.274	106.00189827
802.45	103.22546809
802.625	101.19529882
802.801	96.01121694
802.977	91.24031359
803.152	89.35870951
803.328	88.7966805
803.504	87.85093374
803.679	87.81605365
803.855	90.42646141
804.031	90.40270369
804.206	88.1752165
804.382	87.33147462
804.557	86.98073622
804.733	87.97602121
804.909	89.6059548
805.084	89.23424271
805.26	87.01073523
805.435	86.30303926
805.61	85.38751858
805.786	84.70932301
805.961	80.30308979
806.137	81.06166434
806.312	81.26625845
806.488	82.45018209
806.663	86.31305477
806.838	87.0676495
807.014	88.07665982
807.189	88.18306984
807.364	90.36850516
807.54	88.37612602
807.715	87.2620059
807.89	87.5410691
808.065	87.84694998
808.241	88.46297582
808.416	85.15107449
808.591	82.70473835
808.766	83.50771721
808.941	85.14516811
809.116	83.5061263
809.291	80.44327718
809.467	84.75079247
809.642	89.78208232
809.817	92.44278504
809.992	92.91434673
810.167	92.91410344
810.342	90.68931222
810.517	86.93711031
810.692	79.02636286
810.867	78.51144156
811.042	70.70766951
811.217	65.59600842
811.392	63.27182123
811.567	67.36358597
811.741	64.41311629
811.916	61.30383248
812.091	61.87961985
812.266	64.7690387
812.441	58.25558504
812.616	56.27275149
812.79	55.46652882
812.965	58.31817788
813.14	53.56518845
813.315	53.9025442
813.489	48.50418139
813.664	47.03913286
813.839	44.28935052
814.013	44.81927711
814.188	40.81078635
814.363	50.07571034
814.537	48.84760319
814.712	56.86255834
814.887	68.66426695
815.061	72.23390408
815.236	66.30003055
815.41	68.22620453
815.585	71.06911562
815.759	67.96239569
815.934	68.13680449
816.108	73.90201846
816.283	74.52037748
816.457	75.39129557
816.631	80.9003961
816.806	82.80949975
816.98	77.78749878
817.155	80.95380625
817.329	85.57028596
817.503	91.61644994
817.678	89.27263213
817.852	94.38943894
818.026	91.89946931
818.201	95.11445843
818.375	93.52546003
818.549	87.13488988
818.723	85.47024417
818.897	82.62024737
819.072	81.81400055
819.246	82.49648053
819.42	79.62946625
819.594	77.21293389
819.768	79.73007602
819.942	81.34556575
820.116	79.77028229
820.29	75.98999919
820.465	77.65247411
820.639	80.42640054
820.813	80.13865329
820.987	78.15119816
821.161	72.76061918
821.335	75.09938562
821.509	71.9034968
821.682	74.55275648
821.856	77.49836945
822.03	74.96982177
822.204	75.2721399
822.378	76.2518592
822.552	80.93558834
822.726	80.33393829
822.9	78.53418101
823.073	79.01072445
823.247	72.70664751
823.421	72.17989496
823.595	70.16480674
823.768	75.2969697
823.942	74.53363721
824.116	69.2828378
824.289	67.60491734
824.463	67.50336172
824.637	72.562236
824.81	71.45831447
824.984	70.56034891
825.158	75.9434404
825.331	69.22459177
825.505	60.52998605
825.678	59.14449966
825.852	59.25374721
826.025	55.64974783
826.199	51.75008178
826.372	55.68609559
826.546	63.93861893
826.719	67.9279049
826.893	76.80733514
827.066	70.75181494
827.24	67.3264748
827.413	57.83538561
827.586	50.84351367
827.76	56.38148668
827.933	60.02214839
828.106	52.88828673
828.28	52.94885487
828.453	52.91781976
828.626	53.48530294
828.799	47.74897681
828.973	52.53817043
829.146	64.01102342
829.319	67.8958515
829.492	66.30819993
829.665	68.2228372
829.839	75.14009777
830.012	74.27684805
830.185	67.21069931
830.358	72.23068808
830.531	70.13298191
830.704	76.99427597
830.877	80.67684298
831.05	83.86079513
831.223	96.38586591
831.396	92.30584564
831.569	86.67880996
831.742	89.37838773
831.915	90.76940985
832.088	104.85157578
832.261	97.2510851
832.434	98.31196852
832.607	103.82244143
832.779	108.93702482
832.952	119.9428163
833.125	113.38345865
833.298	110.75282798
833.471	108.67894528
833.643	101.15277594
833.816	101.47757934
833.989	106.49630128
834.162	112.99674728
834.334	99.7831356
834.507	103.58636421
834.68	95.89432346
834.852	105.42547116
835.025	101.1068391
835.198	109.31293944
835.37	111.79707422
835.543	108.73608382
835.715	98.27982908
835.888	105.0295528
836.061	110.05606585
836.233	108.88339805
836.406	104.78583666
836.578	93.56282272
836.751	87.86457738
836.923	97.49968902
837.095	96.94862881
837.268	106.8190574
837.44	101.95451752
837.613	92.68292683
837.785	91.54644092
837.957	98.01200801
838.13	91.03045474
838.302	91.00041859
838.474	87.2178289
838.647	98.06741573
838.819	92.46855584
838.991	92.33541234
839.163	93.49555452
839.336	101.42072362
839.508	108.16594706
839.68	100.12813472
839.852	96.28077528
840.024	92.63259713
840.196	95.71587832
840.368	105.8123978
840.541	93.99172256
840.713	88.90314304
840.885	85.88605001
841.057	92.32649735
841.229	88.2166045
841.401	89.10731116
841.573	87.39238118
841.745	91.71377029
841.917	102.56728265
842.089	92.79112754
842.261	90.45963693
842.432	88.61432177
842.604	82.27565366
842.776	83.6084453
842.948	83.27738406
843.12	75.36422103
843.292	82.00573849
843.464	72.63654754
843.635	76.6406357
843.807	79.38073709
843.979	80.36930528
844.151	88.46564071
844.322	86.74364896
844.494	83.72677748
844.666	80.45977011
844.837	85.17200474
845.009	79.24838842
845.181	81.80107138
845.352	86.19293592
845.524	82.44120618
845.695	80.4699378
845.867	87.47121766
846.039	93.25480297
846.21	108.17630673
846.382	107.90260572
846.553	105.23367242
846.725	108.73150936
846.896	107.35391546
847.068	115.18804875
847.239	109.07823177
847.41	99.82363316
847.582	97.10997777
847.753	91.65228932
847.925	94.22789624
848.096	91.82823496
848.267	94.62515706
848.439	109.36500685
848.61	115.29344567
848.781	114.24798239
848.952	102.94733901
849.124	106.84320557
849.295	119.82443307
849.466	114.15639145
849.637	110.8003108
849.808	106.77989698
849.98	104.02308062
850.151	103.14566866
850.322	96.71088497
850.493	86.08372394
850.664	85.57440112
850.835	95.73231817
851.006	92.38012206
851.177	92.92329198
851.348	79.89537925
851.519	82.22336947
851.69	90.6895921
851.861	83.36343568
852.032	66.30688973
852.203	58.25752982
852.374	68.69509321
852.545	80.60466308
852.716	69.75572904
852.887	61.61496566
853.057	61.19240009
853.228	64.98474059
853.399	69.13633427
853.57	58.7338556
853.741	64.02862555
853.911	67.1746541
854.082	75.42468856
854.253	64.55813953
854.424	65.06986028
854.594	69.79335965
854.765	63.5455324
854.936	116.15554853
855.106	109.57647694
855.277	110.63951821
855.447	118.452237
855.618	128.99714952
855.789	137.37643601
855.959	111.42925316
856.13	103.45644875
856.3	97.80795344
856.471	93.09594461
856.641	89.43029859
856.812	85.22452022
856.982	76.49203608
857.153	90.27587556
857.323	85.53620532
857.493	83.87593913
857.664	91.65207239
857.834	102.53374378
858.004	76.87800795
858.175	76.2324313
858.345	77.29868084
858.515	68.06534824
858.686	64.64773922
858.856	62.36642704
859.026	48.81745121
859.196	35.99582899
859.367	41.16750163
859.537	43.39662897
859.707	55.24625268
859.877	67.59816912
860.047	77.63558806
860.217	71.72841759
860.387	76.89068258
860.558	83.96182131
860.728	83.31590739
860.898	78.43075469
861.068	84.45917944
861.238	80.89681395
861.408	85.35333597
861.578	95.04713849
861.748	91.67388346
861.918	87.58347482
862.088	87.63102725
862.257	87.6528252
862.427	87.40644322
862.597	95.77062507
862.767	97.81649508
862.937	92.98449204
863.107	96.36587275
863.277	88.57803723
863.446	85.74819034
863.616	87.83730935
863.786	96.47854836
863.956	94.86960968
864.125	91.2585474
864.295	86.6499711
864.465	94.1696485
864.634	101.53366259
864.804	82.78197447
864.974	67.87330317
865.143	72.05342237
865.313	60.28346457
865.482	69.65853659
865.652	39.65718738
865.822	47.43011722
865.991	35.45061523
866.161	27.14859438
866.33	29.08579466
866.5	35.92207099
866.669	44.3255421
866.838	39.28474668
867.008	47.54058638
867.177	35.85896474
867.347	39.33707044
867.516	48.68217054
867.685	42.83578902
867.855	42.94583601
868.024	42.51909819
868.193	35.61556791
868.363	33.07137129
868.532	43.28941653
868.701	43.53059178
868.87	44.39866899
869.04	48.60379767
869.209	62.83466949
869.378	62.20484754
869.547	63.1190896
869.716	68.34743568
869.885	73.15855181
870.055	65.1961824
870.224	60.69109948
870.393	60.22037329
870.562	51.88740999
870.731	58.9068378
870.9	56.76042677
871.069	56.49054142
871.238	62.55046307
871.407	67.34641856
871.576	79.91904655
871.745	91.82731469
871.914	96.04459782
872.083	88.29523547
872.251	83.45504911
872.42	93.23874972
872.589	77.82345828
872.758	75.27242246
872.927	77.37886016
873.096	77.26027397
873.264	54.94731432
873.433	48.09398226
873.602	55.48149851
873.771	54.05750799
873.939	51.53260264
874.108	47.61542846
874.277	42.13207917
874.445	40.6257407
874.614	57.5735822
874.783	60.88879063
874.951	62.86638367
875.12	49.04441454
875.288	57.57656458
875.457	63.73482114
875.625	83.31936295
875.794	82.51383914
875.962	87.96530538
876.131	106.00935588
876.299	84.69113697
876.468	79.72213033
876.636	89.53523238
876.805	112.41640012
876.973	117.21589159
877.141	131.75922847
877.31	121.60168599
877.478	195.94997022
877.647	243.63636364
877.815	237.11598746
877.983	194.89535477
878.151	155.2461462
878.32	141.55770324
878.488	141.8036871
878.656	129.49152542
878.824	112.3665174
878.992	122.58613356
879.161	113.12217195
879.329	105.43668888
879.497	104.61650309
879.665	129.85138004
879.833	135.31763661
880.001	227.26543705
880.169	318.95910781
880.337	174.67084639
880.505	232.65306122
880.673	121.88552189
880.841	146.96308059
881.009	125.0092081
881.177	131.12929624
881.345	125.53521564
881.513	125.84856397
881.681	112.03820055
881.849	110.50366996
882.017	102.83981252
882.185	112.72272585
882.352	110.40231968
882.52	103.85361797
882.688	115.53429027
882.856	126.73781367
883.024	109.50378469
883.191	92.74345832
883.359	107.85409136
883.527	113.92540918
883.694	99.365965
883.862	96.93609571
884.03	83.54171983
884.197	111.9833482
884.365	98.5915493
884.533	94.77102956
884.7	88.25353083
884.868	85.18640713
885.035	96.41270926
885.203	93.19060363
885.37	105.907173
885.538	110.92235653
885.705	104.32060113
885.873	114.05846503
886.04	108.47595762
886.208	97.93915604
886.375	86.6962963
886.542	108.69028733
886.71	111.26482213
886.877	89.71934564
