Data from tintauv_2g-BA-sulfate_Reflection_001.txt Node
Date: Thu Nov 23 12:51:47 AEST 2023
User: uqkchene_local
Spectrometer: USB4E02642
Trigger mode: 4
Integration Time (sec): 2.340000E-1
Scans to average: 10
Electric dark correction enabled: true
Nonlinearity correction enabled: false
Boxcar width: 10
XAxis mode: Wavelengths
Number of Pixels in Spectrum: 3648
>>>>>Begin Spectral Data<<<<<
179.217	862.67015707
179.432	1208.77192982
179.647	492.84030642
179.862	459.41176471
180.077	507.30550285
180.293	558.58453473
180.508	1191.82344428
180.723	954.85074627
180.938	1962.0649652
181.153	-1557.87671233
181.368	-1351.70212766
181.583	-547.63313609
181.798	-350.14184397
182.013	-215.38849647
182.228	-66.11285266
182.443	-25.01115573
182.658	-18.1597611
182.873	-18.01619433
183.088	-13.71541502
183.303	-12.22778473
183.518	-7.51602945
183.733	-11.89432142
183.948	-14.53653217
184.162	-21.4342709
184.377	-21.238693
184.592	-25.51163197
184.807	-24.4178365
185.022	-19.0626443
185.237	-18.30791576
185.452	-14.36236934
185.667	-8.51288551
185.882	-5.53382871
186.096	-5.40487163
186.311	-5.63780568
186.526	1.98249569
186.741	-1.00856955
186.956	1.58548104
187.17	2.89198606
187.385	6.57983534
187.6	4.05367031
187.815	5.21350546
188.03	9.33055595
188.244	4.67603435
188.459	7.35091216
188.674	5.36068324
188.889	14.42648518
189.103	24.29913192
189.318	24.2473962
189.533	21.77741601
189.747	20.40502998
189.962	22.70436289
190.177	15.38637403
190.391	13.66356907
190.606	12.42696629
190.821	13.68563686
191.035	4.8359848
191.25	4.93713801
191.465	3.10354491
191.679	1.7226712
191.894	-2.00170965
192.109	0.63680896
192.323	-0.14642309
192.538	-4.13701688
192.752	-5.61820932
192.967	-5.02827976
193.181	5.38341362
193.396	-0.22192334
193.611	-10.20451044
193.825	-9.19988651
194.04	-15.56363074
194.254	-16.10466041
194.469	-18.62924083
194.683	-16.46351243
194.898	-11.15473441
195.112	-4.49411765
195.327	-2.19189413
195.541	-3.70534921
195.756	-3.06903147
195.97	-5.25581395
196.184	-0.32416331
196.399	2.49863711
196.613	-4.96125496
196.828	-8.650866
197.042	-8.50888441
197.257	-2.01124188
197.471	-10.28489062
197.685	-18.71662677
197.9	-18.69149952
198.114	-9.86829727
198.328	-11.49327269
198.543	-5.82548339
198.757	-5.78722706
198.971	-9.40108002
199.186	-11.59122085
199.4	-15.55538
199.614	-22.71065315
199.829	-28.80032868
200.043	-23.47098389
200.257	-23.55667588
200.471	-24.0770857
200.686	-32.3629265
200.9	-30.57266522
201.114	-25.97756146
201.328	-25.34868089
201.543	-19.60959015
201.757	-15.90359503
201.971	-9.35099545
202.185	-11.81297997
202.399	-11.66389854
202.614	-17.1968481
202.828	-13.37968816
203.042	-12.17312264
203.256	-15.64970184
203.47	-8.35690236
203.684	2.82129488
203.899	-0.74542099
204.113	-3.51137488
204.327	-1.17975118
204.541	-3.64870915
204.755	-5.83904359
204.969	-3.42446248
205.183	-2.22146275
205.397	-5.08110356
205.611	-8.70378064
205.825	-11.01768003
206.039	-17.58680808
206.253	-18.27076388
206.467	-20.28323789
206.681	-17.70719526
206.895	-16.30351389
207.109	-9.84700765
207.323	-14.39429556
207.537	-16.1686747
207.751	-17.67513347
207.965	-13.12867956
208.179	-22.24587093
208.393	-15.18212184
208.607	-13.10619055
208.821	-18.66525078
209.035	-19.90337399
209.249	-19.07346232
209.463	-17.44569288
209.677	-11.21117572
209.891	-6.33293124
210.104	-2.32757484
210.318	0.79904366
210.532	4.50261113
210.746	1.0145307
210.96	-4.16399333
211.174	-2.4940913
211.387	-3.89117171
211.601	-9.74257678
211.815	-6.37369392
212.029	-5.80616059
212.243	0.01876642
212.456	-4.98946325
212.67	-0.76640098
212.884	-1.2600742
213.098	-2.1942225
213.311	-2.83199617
213.525	-0.36013697
213.739	0.01815761
213.953	-3.87076923
214.166	-4.62250619
214.38	-6.38649901
214.594	-10.85548509
214.807	-13.17525773
215.021	-14.35865156
215.235	-12.01276654
215.448	-5.52201948
215.662	-3.10038665
215.876	-5.72011486
216.089	-6.21549023
216.303	-9.03975994
216.516	-12.12772263
216.73	-16.80665967
216.944	-21.82083142
217.157	-29.77761305
217.371	-31.25646711
217.584	-32.8231036
217.798	-25.68468338
218.011	-21.87544433
218.225	-25.0106067
218.439	-26.08138659
218.652	-28.33849786
218.866	-33.64392423
219.079	-31.77791355
219.293	-29.3955635
219.506	-32.48779766
219.719	-35.55972953
219.933	-34.12128179
220.146	-35.28784648
220.36	-32.80640387
220.573	-32.37797579
220.787	-30.72511536
221	-34.64708228
221.214	-36.07186112
221.427	-29.09174432
221.64	-31.1966969
221.854	-30.82565234
222.067	-31.28788899
222.28	-30.00263123
222.494	-35.83996649
222.707	-32.78118609
222.92	-23.4591824
223.134	-21.79423767
223.347	-21.53817597
223.56	-18.15804765
223.774	-23.86828869
223.987	-20.07150153
224.2	-14.19753086
224.414	-15.13370097
224.627	-18.07982628
224.84	-20.3211633
225.053	-19.98676036
225.267	-19.9990003
225.48	-16.32351539
225.693	-16.63126388
225.906	-18.01997595
226.119	-17.35025748
226.333	-18.20973508
226.546	-15.04250285
226.759	-14.03782825
226.972	-14.1031653
227.185	-7.29618634
227.398	-10.13190812
227.612	-10.26567404
227.825	-7.87597008
228.038	-7.92312419
228.251	-4.67811159
228.464	-4.70381044
228.677	-6.7813441
228.89	-8.04318226
229.103	-6.8896
229.316	-5.42460145
229.529	-2.45802997
229.743	-3.55292156
229.956	-0.91834983
230.169	-1.26822558
230.382	0.41273899
230.595	0.66818018
230.808	1.58097877
231.021	2.53534038
231.234	2.01926286
231.447	3.87043581
231.66	1.41437836
231.872	1.39943394
232.085	1.7351416
232.298	0.3791654
232.511	-0.74414391
232.724	-0.83521061
232.937	-2.22291537
233.15	-2.70418752
233.363	-1.47133534
233.576	-0.06172609
233.789	0.32698842
234.002	-1.91792085
234.214	-1.00155146
234.427	-2.35184873
234.64	-1.37028309
234.853	-2.72784511
235.066	-1.96807381
235.279	-2.11330268
235.491	-2.94539611
235.704	-2.20074044
235.917	-1.79938844
236.13	-2.19229913
236.342	-0.6950751
236.555	0.12140435
236.768	1.35918959
236.981	2.0250879
237.193	2.05288181
237.406	2.3940261
237.619	2.51741049
237.832	2.67153662
238.044	2.62055067
238.257	2.50364064
238.47	2.91622358
238.682	3.45250422
238.895	3.61277159
239.108	3.24552969
239.32	3.76905716
239.533	3.54088804
239.746	3.5838674
239.958	3.71671114
240.171	3.55109878
240.383	3.34828697
240.596	3.69108009
240.808	3.47663787
241.021	3.47218256
241.234	3.45294207
241.446	3.52207578
241.659	3.49738703
241.871	3.51796368
242.084	3.53673705
242.296	3.62855457
242.509	3.38516522
242.721	3.38947974
242.934	3.40066218
243.146	3.29211303
243.359	3.19855816
243.571	3.41620119
243.784	3.37693368
243.996	3.39307636
244.208	3.47960872
244.421	3.49968287
244.633	3.62200558
244.846	3.71105994
245.058	3.52444229
245.27	3.52969622
245.483	3.57770987
245.695	3.55916153
245.907	3.46399916
246.12	3.5087519
246.332	3.53561999
246.544	3.51293979
246.757	3.45729573
246.969	3.49882387
247.181	3.55345826
247.394	3.56833071
247.606	3.57791707
247.818	3.58409072
248.03	3.51737559
248.243	3.47428041
248.455	3.55499614
248.667	3.50311686
248.879	3.49505099
249.092	3.44416851
249.304	3.32875716
249.516	3.38846867
249.728	3.30704969
249.94	3.19930625
250.153	3.16192632
250.365	3.43540139
250.577	3.41887725
250.789	3.47185746
251.001	3.43309621
251.213	3.49611881
251.425	3.6113299
251.637	3.54260932
251.85	3.48146972
252.062	3.42676378
252.274	3.41295987
252.486	3.38287362
252.698	3.32741588
252.91	3.28518688
253.122	3.2498275
253.334	3.16743052
253.546	3.09771623
253.758	3.20429287
253.97	3.22154023
254.182	3.28398056
254.394	3.28755591
254.606	3.31003224
254.818	3.06726346
255.03	3.10854557
255.242	3.08260709
255.454	3.18234226
255.666	3.09168928
255.877	3.05472066
256.089	3.11028001
256.301	3.1263912
256.513	3.06970502
256.725	3.13459801
256.937	3.20293633
257.149	3.23582442
257.361	3.23070015
257.572	3.25265859
257.784	3.21648216
257.996	3.28913147
258.208	3.21388112
258.42	3.23354366
258.631	3.25086898
258.843	3.23232659
259.055	3.20759296
259.267	3.2453864
259.479	3.18756977
259.69	3.20730198
259.902	3.1802474
260.114	3.17633887
260.325	3.22216635
260.537	3.15310492
260.749	3.17919317
260.961	3.21331881
261.172	3.22152135
261.384	3.21171479
261.596	3.20761741
261.807	3.16966533
262.019	3.18122817
262.23	3.25485612
262.442	3.19286154
262.654	3.19872626
262.865	3.12302618
263.077	3.11114449
263.288	3.12081641
263.5	3.1795478
263.712	3.21419364
263.923	3.27065625
264.135	3.26471854
264.346	3.32069601
264.558	3.36168985
264.769	3.35471725
264.981	3.36329438
265.192	3.35042147
265.404	3.39185886
265.615	3.43002302
265.827	3.41116763
266.038	3.40203036
266.25	3.45897446
266.461	3.51566195
266.673	3.53218558
266.884	3.53235403
267.095	3.57508063
267.307	3.63525233
267.518	3.57519926
267.73	3.57279763
267.941	3.56609789
268.152	3.49963236
268.364	3.46531138
268.575	3.42726073
268.786	3.40206842
268.998	3.42028989
269.209	3.44852988
269.42	3.52621723
269.632	3.50469607
269.843	3.51426921
270.054	3.47687257
270.265	3.47793182
270.477	3.46003368
270.688	3.48179884
270.899	3.44017838
271.11	3.40582241
271.322	3.40005203
271.533	3.33641429
271.744	3.36120806
271.955	3.3921845
272.166	3.40220737
272.378	3.39778618
272.589	3.41801418
272.8	3.49172085
273.011	3.54953914
273.222	3.52226554
273.433	3.52573927
273.644	3.47039052
273.856	3.4172914
274.067	3.45308435
274.278	3.43154874
274.489	3.40699767
274.7	3.421462
274.911	3.45898752
275.122	3.48262401
275.333	3.47827813
275.544	3.52642667
275.755	3.47785685
275.966	3.57673922
276.177	3.52999946
276.388	3.57874465
276.599	3.56937967
276.81	3.54567651
277.021	3.51582892
277.232	3.47267457
277.443	3.44820189
277.654	3.49535566
277.865	3.47355939
278.076	3.49752054
278.287	3.54024482
278.497	3.51990538
278.708	3.55682102
278.919	3.59550011
279.13	3.60861311
279.341	3.59413935
279.552	3.5507757
279.763	3.55163471
279.973	3.50770134
280.184	3.55860176
280.395	3.51119952
280.606	3.5427258
280.817	3.52095284
281.027	3.55342566
281.238	3.53527344
281.449	3.56193664
281.66	3.55161178
281.87	3.55777344
282.081	3.5609091
282.292	3.53852672
282.503	3.54198216
282.713	3.54239394
282.924	3.58456244
283.135	3.56027894
283.345	3.53713103
283.556	3.48789786
283.767	3.50214327
283.977	3.47978245
284.188	3.47322699
284.399	3.48818198
284.609	3.50096257
284.82	3.51234934
285.03	3.50859954
285.241	3.51405493
285.451	3.49482489
285.662	3.52488043
285.873	3.54427275
286.083	3.54861699
286.294	3.54753817
286.504	3.57134699
286.715	3.58440549
286.925	3.56493529
287.136	3.57580002
287.346	3.55552867
287.557	3.56011921
287.767	3.59978439
287.978	3.64134928
288.188	3.61773973
288.399	3.66888863
288.609	3.65548846
288.819	3.65175247
289.03	3.66308413
289.24	3.70182833
289.451	3.67503803
289.661	3.63749371
289.871	3.61816311
290.082	3.60965138
290.292	3.57177898
290.502	3.58301623
290.713	3.56388223
290.923	3.55753223
291.133	3.59633992
291.344	3.61057331
291.554	3.59935575
291.764	3.60425244
291.974	3.59293129
292.185	3.57846315
292.395	3.61808138
292.605	3.64681311
292.815	3.61169259
293.026	3.6365685
293.236	3.63079025
293.446	3.61475293
293.656	3.58343508
293.866	3.59417232
294.077	3.63684583
294.287	3.67093141
294.497	3.69267379
294.707	3.70567207
294.917	3.67554545
295.127	3.72731342
295.337	3.68434253
295.548	3.69055696
295.758	3.69010883
295.968	3.68091095
296.178	3.66124631
296.388	3.66866301
296.598	3.6489489
296.808	3.65049145
297.018	3.65879072
297.228	3.65929207
297.438	3.64013851
297.648	3.61731077
297.858	3.62368224
298.068	3.67827292
298.278	3.67527819
298.488	3.67133861
298.698	3.6579612
298.908	3.63369045
299.118	3.61962838
299.328	3.64587311
299.538	3.58734079
299.748	3.58636351
299.957	3.5797084
300.167	3.5544714
300.377	3.57870391
300.587	3.60614146
300.797	3.64182627
301.007	3.68052599
301.217	3.63703198
301.426	3.59687727
301.636	3.58811212
301.846	3.61094283
302.056	3.64674797
302.266	3.61942427
302.475	3.56279163
302.685	3.55386093
302.895	3.54437891
303.105	3.53925751
303.314	3.52581397
303.524	3.59825697
303.734	3.59491226
303.944	3.59929665
304.153	3.64020324
304.363	3.62506109
304.573	3.63390428
304.782	3.59010087
304.992	3.56056966
305.202	3.50687452
305.411	3.4871574
305.621	3.49320141
305.831	3.50459463
306.04	3.50360239
306.25	3.50495827
306.459	3.49306241
306.669	3.47036509
306.878	3.46235402
307.088	3.48887552
307.298	3.50430081
307.507	3.50949852
307.717	3.53480987
307.926	3.50358089
308.136	3.51859137
308.345	3.51314349
308.555	3.49714175
308.764	3.49669002
308.974	3.52834034
309.183	3.55248113
309.392	3.56526169
309.602	3.56619331
309.811	3.55011077
310.021	3.5428494
310.23	3.55113437
310.44	3.53265671
310.649	3.55090183
310.858	3.55505158
311.068	3.61955142
311.277	3.66062374
311.486	3.64574236
311.696	3.65499111
311.905	3.66482102
312.114	3.66310616
312.324	3.65343074
312.533	3.65553705
312.742	3.69258605
312.952	3.72768084
313.161	3.75234818
313.37	3.76163125
313.579	3.76614392
313.789	3.77551995
313.998	3.83526445
314.207	3.83470083
314.416	3.861605
314.625	3.88180588
314.835	3.93455008
315.044	3.92120429
315.253	3.91578568
315.462	3.92758219
315.671	3.88866211
315.88	3.94238689
316.09	3.96450361
316.299	3.97586921
316.508	3.98746777
316.717	4.00748623
316.926	3.98473963
317.135	3.99189947
317.344	3.95541341
317.553	3.95226765
317.762	3.90471396
317.971	3.9190488
318.18	3.92410699
318.389	3.87939529
318.598	3.8800587
318.807	3.88195264
319.016	3.8320232
319.225	3.77263898
319.434	3.81171566
319.643	3.87656029
319.852	3.83919337
320.061	3.8153761
320.27	3.77524224
320.479	3.77676781
320.688	3.71729889
320.897	3.69814787
321.105	3.68840855
321.314	3.74142675
321.523	3.7188687
321.732	3.70631448
321.941	3.70318348
322.15	3.72345226
322.359	3.70757847
322.567	3.67909606
322.776	3.71900741
322.985	3.74896619
323.194	3.69475433
323.403	3.71920603
323.611	3.73766448
323.82	3.70224199
324.029	3.62410746
324.237	3.59987342
324.446	3.6745603
324.655	3.66828595
324.864	3.63120943
325.072	3.6452245
325.281	3.68853722
325.49	3.65337543
325.698	3.59376555
325.907	3.5500037
326.116	3.56839801
326.324	3.55048298
326.533	3.53061911
326.741	3.50430448
326.95	3.51494184
327.159	3.46769763
327.367	3.44876155
327.576	3.49315468
327.784	3.54011163
327.993	3.55055328
328.201	3.52806439
328.41	3.57959925
328.618	3.5613619
328.827	3.50534591
329.035	3.52680339
329.244	3.48000478
329.452	3.50220764
329.661	3.43708626
329.869	3.45650962
330.078	3.48716489
330.286	3.50482954
330.495	3.50774984
330.703	3.52220188
330.911	3.5210845
331.12	3.60161434
331.328	3.65077223
331.537	3.63039777
331.745	3.64260908
331.953	3.64116439
332.162	3.58642463
332.37	3.60729253
332.578	3.64915027
332.787	3.6132761
332.995	3.64613904
333.203	3.64216764
333.411	3.63018878
333.62	3.6575185
333.828	3.67002635
334.036	3.69018372
334.244	3.71222562
334.453	3.6891929
334.661	3.7135128
334.869	3.68739067
335.077	3.66428375
335.285	3.67313647
335.494	3.63917217
335.702	3.58429667
335.91	3.61850988
336.118	3.62075583
336.326	3.59911339
336.534	3.6071512
336.742	3.60357289
336.951	3.61448907
337.159	3.66820281
337.367	3.65058016
337.575	3.65789945
337.783	3.69713732
337.991	3.73306562
338.199	3.71227418
338.407	3.74913567
338.615	3.73394388
338.823	3.72346875
339.031	3.74536423
339.239	3.75587486
339.447	3.7427375
339.655	3.77843581
339.863	3.74377253
340.071	3.76034294
340.279	3.74319825
340.487	3.72813146
340.695	3.72340168
340.903	3.72263013
341.11	3.71526933
341.318	3.69251325
341.526	3.65940456
341.734	3.71737517
341.942	3.74065463
342.15	3.71299139
342.358	3.69539828
342.565	3.71316769
342.773	3.68909625
342.981	3.6852803
343.189	3.66970738
343.397	3.62988318
343.604	3.63228823
343.812	3.64645716
344.02	3.63820373
344.228	3.64180926
344.435	3.65877511
344.643	3.66434489
344.851	3.69767974
345.058	3.70443709
345.266	3.71643366
345.474	3.72169316
345.681	3.68369499
345.889	3.68456213
346.097	3.64536052
346.304	3.60786046
346.512	3.5886022
346.72	3.61400687
346.927	3.6081985
347.135	3.61152573
347.342	3.63385347
347.55	3.68304338
347.758	3.6857895
347.965	3.66478691
348.173	3.67200983
348.38	3.6577834
348.588	3.660117
348.795	3.6273745
349.003	3.63433243
349.21	3.60443402
349.418	3.6164962
349.625	3.60645903
349.833	3.57868816
350.04	3.59852684
350.247	3.60533894
350.455	3.62249809
350.662	3.63989084
350.87	3.65171764
351.077	3.5862513
351.284	3.59329349
351.492	3.56557388
351.699	3.56135249
351.906	3.55002926
352.114	3.60342218
352.321	3.60482184
352.528	3.60085485
352.736	3.60697983
352.943	3.60911413
353.15	3.6351202
353.358	3.62422851
353.565	3.65987113
353.772	3.63131263
353.979	3.61319417
354.187	3.64113653
354.394	3.67355597
354.601	3.6771865
354.808	3.6645297
355.015	3.66371723
355.223	3.65568845
355.43	3.69073903
355.637	3.66938569
355.844	3.68266681
356.051	3.67283619
356.258	3.66664315
356.465	3.63153731
356.673	3.6560206
356.88	3.67789185
357.087	3.67889118
357.294	3.67139359
357.501	3.66865288
357.708	3.66707405
357.915	3.63925199
358.122	3.66583762
358.329	3.67822378
358.536	3.68465723
358.743	3.66340513
358.95	3.64883829
359.157	3.64894418
359.364	3.64576274
359.571	3.65454288
359.778	3.62704095
359.985	3.65811693
360.192	3.66873083
360.399	3.68217373
360.606	3.67075349
360.812	3.68488017
361.019	3.68855361
361.226	3.66104721
361.433	3.66398049
361.64	3.66703537
361.847	3.66051675
362.054	3.70698608
362.26	3.69690652
362.467	3.70367106
362.674	3.69176169
362.881	3.70695038
363.088	3.71018296
363.294	3.70678141
363.501	3.70657109
363.708	3.72950022
363.915	3.73142719
364.121	3.77971714
364.328	3.7646099
364.535	3.76461262
364.741	3.73799224
364.948	3.76877169
365.155	3.7792501
365.361	3.79825613
365.568	3.8056776
365.775	3.81273128
365.981	3.81276711
366.188	3.81476193
366.395	3.7631576
366.601	3.79053151
366.808	3.80019106
367.014	3.81377542
367.221	3.76003475
367.427	3.78383279
367.634	3.7767384
367.84	3.78391271
368.047	3.77766756
368.254	3.77866533
368.46	3.76392315
368.667	3.79090931
368.873	3.76195609
369.079	3.81283522
369.286	3.79166816
369.492	3.81027478
369.699	3.80153679
369.905	3.8208628
370.112	3.80801754
370.318	3.8297991
370.524	3.84877551
370.731	3.87761312
370.937	3.88436223
371.144	3.88827396
371.35	3.90308078
371.556	3.93110196
371.763	3.93083838
371.969	3.94347114
372.175	3.93906368
372.381	3.94914261
372.588	3.95474767
372.794	3.96244054
373	3.93390195
373.206	3.95969359
373.413	3.9342212
373.619	3.95567965
373.825	3.95744871
374.031	3.9720821
374.238	3.96917362
374.444	3.98539674
374.65	3.99447338
374.856	3.99456983
375.062	3.97418735
375.268	3.97046367
375.475	3.9827511
375.681	3.97437534
375.887	4.01340433
376.093	4.01082941
376.299	4.00025023
376.505	4.05237564
376.711	4.05231049
376.917	4.05019573
377.123	4.02741978
377.329	4.04955938
377.535	4.03880963
377.741	4.02587886
377.947	4.02643532
378.153	4.03822529
378.359	4.00791136
378.565	4.00226223
378.771	3.97729825
378.977	3.96631934
379.183	3.96379587
379.389	3.9705045
379.595	3.96333536
379.801	3.9297393
380.007	3.928133
380.213	3.89988228
380.418	3.89671172
380.624	3.93497956
380.83	3.89692606
381.036	3.91769114
381.242	3.9223196
381.448	3.94011473
381.653	3.94114689
381.859	3.9664119
382.065	3.97069334
382.271	3.96652981
382.476	3.93503492
382.682	3.95890328
382.888	3.96820297
383.094	3.99461013
383.299	4.01046976
383.505	4.02511976
383.711	4.04752373
383.916	4.05655917
384.122	4.05147184
384.328	4.07153055
384.533	4.07751966
384.739	4.08380807
384.945	4.06895273
385.15	4.07674242
385.356	4.05103827
385.562	4.04882046
385.767	4.06059774
385.973	4.04963494
386.178	4.04400667
386.384	4.05886935
386.589	4.05539262
386.795	4.06554869
387	4.05574956
387.206	4.05896543
387.411	4.04964999
387.617	4.03737573
387.822	4.03051029
388.028	4.01816755
388.233	4.02289084
388.439	4.02649888
388.644	4.00988484
388.85	4.00280844
389.055	3.98339406
389.26	3.9873516
389.466	3.97447277
389.671	3.97640818
389.877	3.97947185
390.082	3.97222045
390.287	3.96000919
390.493	3.95276551
390.698	3.9516286
390.903	3.94515909
391.109	3.95240056
391.314	3.95356616
391.519	3.95845296
391.724	3.95558793
391.93	3.97699544
392.135	3.97064054
392.34	3.97934194
392.545	3.97689506
392.751	3.97682149
392.956	3.99745575
393.161	4.01527424
393.366	4.03862018
393.571	4.04802161
393.776	4.05604889
393.982	4.05053184
394.187	4.07468287
394.392	4.07311993
394.597	4.09081955
394.802	4.10580346
395.007	4.11927736
395.212	4.13416182
395.417	4.11570015
395.622	4.10777756
395.827	4.11856973
396.032	4.11791844
396.237	4.09777797
396.442	4.10331002
396.647	4.10605237
396.852	4.0927416
397.057	4.09482032
397.262	4.09367621
397.467	4.08916344
397.672	4.07414721
397.877	4.08014017
398.082	4.06017881
398.287	4.05353601
398.492	4.04065108
398.697	4.03486209
398.902	4.02695698
399.107	4.02419589
399.311	4.00643401
399.516	4.00311385
399.721	4.00702873
399.926	4.0106941
400.131	4.00312522
400.336	4.00540194
400.54	4.03834318
400.745	4.03294072
400.95	4.00255781
401.155	4.01400976
401.359	4.02815585
401.564	4.00570311
401.769	3.99206547
401.974	4.00326039
402.178	3.98283943
402.383	4.00374441
402.588	4.00541039
402.792	3.9875509
402.997	3.99264971
403.202	4.00008437
403.406	3.98934675
403.611	3.9882137
403.815	3.98637253
404.02	3.97923746
404.225	3.98736954
404.429	3.97833345
404.634	3.9727362
404.838	3.93782642
405.043	3.94003869
405.247	3.94909119
405.452	3.92774764
405.656	3.93034017
405.861	3.93708526
406.065	3.95072296
406.27	3.93981707
406.474	3.94487135
406.679	3.93863657
406.883	3.95488098
407.088	3.96913883
407.292	3.96584
407.497	3.9515437
407.701	3.94621023
407.905	3.94981238
408.11	3.94448623
408.314	3.94477505
408.518	3.94465617
408.723	3.93587671
408.927	3.94807955
409.131	3.95355532
409.336	3.93872105
409.54	3.94178523
409.744	3.97041747
409.949	3.95142614
410.153	3.9458707
410.357	3.93467667
410.561	3.93349343
410.766	3.93523692
410.97	3.95390088
411.174	3.94646076
411.378	3.92744603
411.582	3.95068363
411.787	3.9622534
411.991	3.96592517
412.195	3.9708023
412.399	3.98270671
412.603	3.99786265
412.807	3.9846609
413.011	3.98306687
413.215	3.9835567
413.419	3.97412978
413.624	3.9763915
413.828	3.96770522
414.032	3.94826776
414.236	3.96197858
414.44	3.98460773
414.644	3.98297799
414.848	3.98159629
415.052	3.99881101
415.256	3.9712965
415.46	3.96548713
415.664	3.9733607
415.868	3.96055984
416.072	3.94420684
416.275	3.939341
416.479	3.93614479
416.683	3.92674544
416.887	3.91791401
417.091	3.93545162
417.295	3.95056655
417.499	3.94876595
417.703	3.95133159
417.906	3.96812605
418.11	3.9798064
418.314	3.98021396
418.518	3.98594607
418.722	3.98507313
418.925	3.992129
419.129	3.9924437
419.333	3.99178966
419.537	4.00057338
419.74	4.01338831
419.944	4.01728021
420.148	4.0233338
420.352	4.04645389
420.555	4.05303288
420.759	4.06043109
420.963	4.06853823
421.166	4.06801834
421.37	4.06216465
421.573	4.06167625
421.777	4.06224272
421.981	4.0756011
422.184	4.06914015
422.388	4.07034519
422.591	4.07829057
422.795	4.07761895
422.999	4.07736699
423.202	4.07400048
423.406	4.07522172
423.609	4.06929997
423.813	4.07536401
424.016	4.06703763
424.22	4.06333683
424.423	4.05363956
424.627	4.04407354
424.83	4.04989519
425.033	4.04827499
425.237	4.04607473
425.44	4.05543639
425.644	4.06280769
425.847	4.0695649
426.05	4.07604632
426.254	4.06305282
426.457	4.05429379
426.66	4.05254345
426.864	4.04102066
427.067	4.0330335
427.27	4.0227003
427.474	4.02106396
427.677	4.01657118
427.88	4.01569618
428.084	4.00678121
428.287	4.01444261
428.49	4.01720426
428.693	4.01831722
428.896	4.01812912
429.1	4.02300097
429.303	4.02949205
429.506	4.02391408
429.709	4.00944383
429.912	4.01081849
430.116	4.01093913
430.319	4.01808199
430.522	4.01123771
430.725	4.03076757
430.928	4.04000739
431.131	4.04856094
431.334	4.04527919
431.537	4.04864417
431.74	4.06654769
431.943	4.07632165
432.146	4.08032362
432.349	4.08670199
432.552	4.08665053
432.755	4.09148552
432.958	4.08394347
433.161	4.09118609
433.364	4.08159938
433.567	4.07786896
433.77	4.09038116
433.973	4.10321553
434.176	4.09661249
434.379	4.090322
434.582	4.07895413
434.785	4.0940128
434.988	4.09817142
435.19	4.08063331
435.393	4.08914087
435.596	4.10392791
435.799	4.11766247
436.002	4.098233
436.205	4.0983971
436.407	4.10364122
436.61	4.10033124
436.813	4.09619767
437.016	4.09278027
437.218	4.11668117
437.421	4.11577358
437.624	4.11934604
437.827	4.11625338
438.029	4.11180475
438.232	4.12021744
438.435	4.12530287
438.637	4.12811824
438.84	4.12951123
439.043	4.13143481
439.245	4.13406003
439.448	4.13398803
439.65	4.13767706
439.853	4.14313032
440.056	4.13873671
440.258	4.14138152
440.461	4.16112406
440.663	4.16784614
440.866	4.16224773
441.068	4.16385939
441.271	4.16566825
441.473	4.1574151
441.676	4.15895035
441.878	4.15681058
442.081	4.17162931
442.283	4.17966057
442.486	4.17289409
442.688	4.1761295
442.89	4.18036919
443.093	4.18952004
443.295	4.19407325
443.498	4.19151247
443.7	4.20071303
443.902	4.19309855
444.105	4.19463298
444.307	4.20134692
444.509	4.21590857
444.712	4.20620871
444.914	4.18697726
445.116	4.20533779
445.319	4.2135642
445.521	4.22947478
445.723	4.23373403
445.925	4.24047844
446.128	4.24570116
446.33	4.24464371
446.532	4.24887015
446.734	4.25862026
446.936	4.25464197
447.139	4.25786052
447.341	4.25385078
447.543	4.25546002
447.745	4.25336064
447.947	4.2589815
448.149	4.26594568
448.351	4.26734064
448.553	4.26437941
448.755	4.26670197
448.958	4.26332752
449.16	4.27676522
449.362	4.26122108
449.564	4.27114943
449.766	4.26108651
449.968	4.2617128
450.17	4.26720391
450.372	4.27999762
450.574	4.27741552
450.776	4.27931718
450.978	4.28887727
451.179	4.29888037
451.381	4.29879801
451.583	4.31599847
451.785	4.32394757
451.987	4.33676745
452.189	4.33736989
452.391	4.34789747
452.593	4.35409233
452.795	4.36575651
452.996	4.37019403
453.198	4.37771498
453.4	4.39429834
453.602	4.42134996
453.804	4.42278321
454.005	4.43045614
454.207	4.43912928
454.409	4.44328905
454.611	4.43864717
454.812	4.45330116
455.014	4.46846933
455.216	4.47573574
455.417	4.47978192
455.619	4.49523947
455.821	4.49365646
456.022	4.49901766
456.224	4.49884672
456.426	4.52346951
456.627	4.53714387
456.829	4.54638577
457.031	4.55093988
457.232	4.5565713
457.434	4.57628431
457.635	4.59950475
457.837	4.60933115
458.038	4.61561673
458.24	4.63103319
458.441	4.66047404
458.643	4.67101789
458.844	4.68754757
459.046	4.69821639
459.247	4.69760099
459.449	4.70181364
459.65	4.71655067
459.852	4.73643895
460.053	4.7520878
460.254	4.77393188
460.456	4.79270168
460.657	4.80195302
460.859	4.81190598
461.06	4.82128771
461.261	4.84365522
461.463	4.86025414
461.664	4.8678038
461.865	4.86571952
462.066	4.88937833
462.268	4.90505431
462.469	4.92673367
462.67	4.93820753
462.872	4.9571759
463.073	4.9653829
463.274	4.98793585
463.475	5.00446701
463.676	5.02867396
463.878	5.05834054
464.079	5.07436504
464.28	5.1002497
464.481	5.1181185
464.682	5.1592889
464.883	5.18302319
465.085	5.22219962
465.286	5.25718717
465.487	5.28098395
465.688	5.30834143
465.889	5.35086312
466.09	5.3958911
466.291	5.41876496
466.492	5.46428723
466.693	5.49490472
466.894	5.52448227
467.095	5.56577168
467.296	5.61961495
467.497	5.65107281
467.698	5.69731459
467.899	5.7446253
468.1	5.78209465
468.301	5.81177394
468.502	5.85172314
468.703	5.89764573
468.903	5.93003284
469.104	5.98465787
469.305	6.01612854
469.506	6.06982038
469.707	6.12298007
469.908	6.18220826
470.109	6.22950987
470.309	6.27253155
470.51	6.33309924
470.711	6.3812392
470.912	6.43437795
471.112	6.5002813
471.313	6.55073912
471.514	6.61615679
471.715	6.68888123
471.915	6.76103699
472.116	6.82424892
472.317	6.88292356
472.517	6.95331878
472.718	7.02208186
472.919	7.09659079
473.119	7.17109715
473.32	7.23223721
473.521	7.31960467
473.721	7.39290431
473.922	7.45247522
474.122	7.5168039
474.323	7.58978007
474.523	7.67149988
474.724	7.72671008
474.925	7.79922535
475.125	7.87440233
475.326	7.94425363
475.526	8.02006104
475.727	8.08533245
475.927	8.14874437
476.127	8.21946319
476.328	8.28372728
476.528	8.36354257
476.729	8.4411341
476.929	8.50826013
477.13	8.5663304
477.33	8.6353308
477.53	8.72014957
477.731	8.7653052
477.931	8.82662394
478.131	8.90837489
478.332	8.98904988
478.532	9.06918601
478.732	9.1419612
478.933	9.22797293
479.133	9.30958641
479.333	9.3865461
479.533	9.45933846
479.734	9.53601255
479.934	9.60437384
480.134	9.67182247
480.334	9.74271044
480.534	9.80623058
480.735	9.86906832
480.935	9.93736967
481.135	10.00612872
481.335	10.06755457
481.535	10.11490252
481.735	10.16237802
481.935	10.22128734
482.136	10.27332885
482.336	10.31855102
482.536	10.36729603
482.736	10.41615368
482.936	10.46153567
483.136	10.51394034
483.336	10.55928867
483.536	10.60876501
483.736	10.64940234
483.936	10.69407625
484.136	10.74135615
484.336	10.7840906
484.536	10.82943732
484.736	10.87462441
484.936	10.91215314
485.135	10.93997208
485.335	10.96843695
485.535	10.99822899
485.735	11.03693108
485.935	11.06488129
486.135	11.09575064
486.335	11.12124865
486.534	11.15338893
486.734	11.17622002
486.934	11.2001603
487.134	11.23036022
487.334	11.25523729
487.533	11.27809735
487.733	11.29825846
487.933	11.32731821
488.133	11.34763053
488.332	11.36763714
488.532	11.39391354
488.732	11.40605445
488.931	11.42230784
489.131	11.44216178
489.331	11.46456639
489.53	11.48488397
489.73	11.51025475
489.93	11.52403994
490.129	11.54767034
490.329	11.56564117
490.528	11.59110139
490.728	11.60795585
490.928	11.62589275
491.127	11.64826863
491.327	11.6601055
491.526	11.67047618
491.726	11.68525504
491.925	11.70482116
492.125	11.71742439
492.324	11.73328897
492.524	11.75097286
492.723	11.76036454
492.922	11.77594274
493.122	11.78969858
493.321	11.80273625
493.521	11.81648442
493.72	11.83159587
493.919	11.83463167
494.119	11.84560339
494.318	11.85306413
494.517	11.86524549
494.717	11.87359448
494.916	11.88554694
495.115	11.90514197
495.315	11.91029548
495.514	11.91809138
495.713	11.92745499
495.912	11.9450999
496.112	11.95413901
496.311	11.96046417
496.51	11.96914075
496.709	11.98130224
496.908	11.99970528
497.108	12.01314363
497.307	12.02281011
497.506	12.03206753
497.705	12.04171484
497.904	12.05008619
498.103	12.06266463
498.302	12.07204928
498.501	12.08975964
498.701	12.10387018
498.9	12.10876036
499.099	12.11141291
499.298	12.12109644
499.497	12.14335404
499.696	12.15943384
499.895	12.16662592
500.094	12.16481736
500.293	12.16798252
500.492	12.17629222
500.691	12.18043901
500.89	12.17901694
501.088	12.17492247
501.287	12.18191409
501.486	12.18362385
501.685	12.1951865
501.884	12.20310148
502.083	12.19870353
502.282	12.20511339
502.481	12.21324324
502.679	12.2129152
502.878	12.21186375
503.077	12.21558487
503.276	12.22037644
503.475	12.2079289
503.673	12.18836597
503.872	12.16600601
504.071	12.17088891
504.27	12.17490743
504.468	12.16728516
504.667	12.17424791
504.866	12.1779407
505.064	12.17282935
505.263	12.1659011
505.462	12.15867121
505.66	12.14430961
505.859	12.1291923
506.058	12.1051734
506.256	12.10402471
506.455	12.09875599
506.653	12.09335756
506.852	12.07753169
507.05	12.06029448
507.249	12.04595198
507.448	12.03911836
507.646	12.04088213
507.845	12.03694424
508.043	12.04480395
508.242	12.03607138
508.44	12.02800242
508.638	12.01504652
508.837	11.9936217
509.035	11.98603839
509.234	11.97978106
509.432	11.96957955
509.631	11.95401983
509.829	11.95318268
510.027	11.94163083
510.226	11.93736144
510.424	11.92535939
510.622	11.90036497
510.821	11.89623865
511.019	11.88290702
511.217	11.87794363
511.415	11.86609974
511.614	11.85946104
511.812	11.84052786
512.01	11.81716007
512.208	11.79722123
512.407	11.77886129
512.605	11.7604466
512.803	11.7557914
513.001	11.74928421
513.199	11.73145803
513.398	11.70767099
513.596	11.68878133
513.794	11.67813905
513.992	11.65886407
514.19	11.65063112
514.388	11.63751539
514.586	11.62485471
514.784	11.62036772
514.982	11.59797223
515.18	11.58815549
515.378	11.57256569
515.576	11.56540485
515.774	11.55120406
515.972	11.54496892
516.17	11.54018125
516.368	11.53287281
516.566	11.52475471
516.764	11.51649503
516.962	11.50448186
517.16	11.49142442
517.358	11.48255234
517.556	11.48615425
517.754	11.48135745
517.952	11.46089816
518.149	11.46749374
518.347	11.46078393
518.545	11.45578243
518.743	11.45714279
518.941	11.45405431
519.138	11.45397192
519.336	11.44948143
519.534	11.43679663
519.732	11.42851002
519.929	11.41409422
520.127	11.40446699
520.325	11.39641671
520.523	11.39257663
520.72	11.38825538
520.918	11.37758442
521.116	11.36697353
521.313	11.36076384
521.511	11.34676671
521.709	11.33613019
521.906	11.32944996
522.104	11.32888419
522.301	11.30777032
522.499	11.29602246
522.696	11.28359141
522.894	11.26078011
523.092	11.24986117
523.289	11.23098252
523.487	11.21039746
523.684	11.2039047
523.882	11.19203674
524.079	11.18690338
524.276	11.17995815
524.474	11.17513826
524.671	11.16677682
524.869	11.1537072
525.066	11.15289642
525.264	11.14665241
525.461	11.13934773
525.658	11.14256324
525.856	11.13692846
526.053	11.13338549
526.25	11.14370744
526.448	11.14039215
526.645	11.14243959
526.842	11.15102886
527.039	11.16559211
527.237	11.16849814
527.434	11.17864773
527.631	11.19105974
527.828	11.1998441
528.026	11.21151437
528.223	11.21966565
528.42	11.23207562
528.617	11.24153773
528.814	11.24726208
529.012	11.25391919
529.209	11.2617397
529.406	11.26834084
529.603	11.2773961
529.8	11.27882156
529.997	11.28223976
530.194	11.28616668
530.391	11.28425852
530.588	11.2948475
530.785	11.30018398
530.982	11.30407198
531.179	11.30732181
531.376	11.30725418
531.573	11.30408047
531.77	11.30452851
531.967	11.30397605
532.164	11.29949067
532.361	11.2976892
532.558	11.29280608
532.755	11.27999333
532.952	11.27965718
533.149	11.27404185
533.346	11.26989531
533.543	11.26710242
533.739	11.26096456
533.936	11.258973
534.133	11.25278625
534.33	11.25054233
534.527	11.24377858
534.723	11.23690601
534.92	11.22634028
535.117	11.21125308
535.314	11.19643401
535.51	11.19306034
535.707	11.18640443
535.904	11.17957786
536.1	11.16893159
536.297	11.1618363
536.494	11.15253888
536.69	11.14053084
536.887	11.14361939
537.084	11.14224113
537.28	11.1421954
537.477	11.1334982
537.674	11.13145479
537.87	11.1302184
538.067	11.12201274
538.263	11.1230923
538.46	11.11468678
538.656	11.11767413
538.853	11.11075653
539.049	11.10980111
539.246	11.11472901
539.442	11.11100518
539.639	11.10168159
539.835	11.10015552
540.032	11.10002203
540.228	11.10646463
540.424	11.10529711
540.621	11.10780834
540.817	11.11156411
541.014	11.11974461
541.21	11.11956572
541.406	11.12279691
541.603	11.12239853
541.799	11.12852079
541.995	11.1302281
542.191	11.13507475
542.388	11.13721067
542.584	11.14264684
542.78	11.14196161
542.976	11.15419933
543.173	11.15481582
543.369	11.16207007
543.565	11.16496438
543.761	11.17557085
543.957	11.1838858
544.154	11.19131202
544.35	11.19378336
544.546	11.19901282
544.742	11.20148007
544.938	11.19741297
545.134	11.1930112
545.33	11.19073206
545.526	11.19474734
545.722	11.19824588
545.919	11.19266931
546.115	11.19142227
546.311	11.19236089
546.507	11.19233147
546.703	11.19729056
546.899	11.19666851
547.095	11.18761585
547.29	11.18701012
547.486	11.17449916
547.682	11.16926627
547.878	11.16682419
548.074	11.16088209
548.27	11.14864169
548.466	11.14106956
548.662	11.13691082
548.858	11.13327319
549.053	11.14178664
549.249	11.13553734
549.445	11.13900991
549.641	11.1300761
549.837	11.13044168
550.032	11.12830982
550.228	11.11741478
550.424	11.10558669
550.62	11.10138731
550.815	11.09043986
551.011	11.07122795
551.207	11.06610733
551.402	11.06455357
551.598	11.05829786
551.794	11.06057379
551.989	11.04441488
552.185	11.04282172
552.381	11.04381125
552.576	11.04323811
552.772	11.04395516
552.967	11.04455944
553.163	11.02486827
553.359	11.02444279
553.554	11.0084073
553.75	11.00140583
553.945	10.98771561
554.141	10.98307565
554.336	10.98069924
554.532	10.97405264
554.727	10.97421875
554.922	10.97927446
555.118	10.99077147
555.313	10.97805826
555.509	10.98118083
555.704	10.98649956
555.899	10.97383623
556.095	10.98157381
556.29	10.97026189
556.486	10.96474741
556.681	10.96107184
556.876	10.96256698
557.071	10.94543238
557.267	10.94442794
557.462	10.93953329
557.657	10.95280857
557.853	10.95671619
558.048	10.97150253
558.243	10.97349548
558.438	10.97303527
558.633	10.99039572
558.829	10.98681415
559.024	10.99039595
559.219	10.99605308
559.414	11.01730381
559.609	11.01292475
559.804	11.0196263
559.999	11.04143053
560.194	11.05655228
560.39	11.07348212
560.585	11.09133406
560.78	11.09615693
560.975	11.09476512
561.17	11.11104286
561.365	11.13315356
561.56	11.15711305
561.755	11.1771769
561.95	11.19034069
562.145	11.19648073
562.34	11.23141238
562.535	11.25901967
562.729	11.28621396
562.924	11.30679732
563.119	11.32684175
563.314	11.35315147
563.509	11.37380834
563.704	11.40344657
563.899	11.43762913
564.093	11.46752792
564.288	11.50082064
564.483	11.5433458
564.678	11.5677124
564.873	11.60789459
565.067	11.65437634
565.262	11.70870958
565.457	11.76066001
565.652	11.80951918
565.846	11.84626109
566.041	11.91380732
566.236	11.96392769
566.43	12.00404369
566.625	12.06897541
566.82	12.123578
567.014	12.19352693
567.209	12.25463679
567.404	12.31126739
567.598	12.37969856
567.793	12.44542351
567.987	12.52251382
568.182	12.59116997
568.376	12.66686428
568.571	12.72866382
568.765	12.82593189
568.96	12.91351487
569.154	12.99768685
569.349	13.07565037
569.543	13.1565235
569.738	13.22958371
569.932	13.32574985
570.127	13.39740508
570.321	13.4930759
570.515	13.59147359
570.71	13.69520717
570.904	13.80216439
571.098	13.91213781
571.293	14.01497805
571.487	14.12700764
571.681	14.24801288
571.876	14.36956568
572.07	14.47750357
572.264	14.59630683
572.458	14.70513207
572.653	14.82914224
572.847	14.94377192
573.041	15.06806319
573.235	15.1867581
573.43	15.31645847
573.624	15.44111172
573.818	15.57148474
574.012	15.69210889
574.206	15.83823268
574.4	15.97011814
574.594	16.10727954
574.788	16.2462089
574.983	16.37284657
575.177	16.49959104
575.371	16.6513689
575.565	16.78644734
575.759	16.9052705
575.953	17.04353041
576.147	17.18386386
576.341	17.32966304
576.535	17.47795552
576.729	17.62244465
576.923	17.77868945
577.117	17.93100719
577.31	18.09853404
577.504	18.25741561
577.698	18.42170904
577.892	18.59976482
578.086	18.77133508
578.28	18.94516604
578.474	19.14369864
578.668	19.33246535
578.861	19.51320661
579.055	19.6949624
579.249	19.89325921
579.443	20.08558963
579.636	20.29938564
579.83	20.51467866
580.024	20.73229535
580.218	20.93303967
580.411	21.142364
580.605	21.35384501
580.799	21.58922618
580.992	21.7999857
581.186	22.01716264
581.38	22.22076473
581.573	22.46805499
581.767	22.68958687
581.961	22.9073512
582.154	23.12970898
582.348	23.34797413
582.541	23.55909369
582.735	23.80488402
582.928	24.02841591
583.122	24.26755613
583.315	24.49778863
583.509	24.72251726
583.702	24.95957469
583.896	25.19288206
584.089	25.43137518
584.283	25.67795809
584.476	25.92226826
584.67	26.16844978
584.863	26.40014423
585.056	26.64078683
585.25	26.8767294
585.443	27.1266558
585.636	27.33821677
585.83	27.57751151
586.023	27.81681579
586.216	28.06904185
586.41	28.30646926
586.603	28.53824646
586.796	28.73511891
586.989	28.95653789
587.183	29.21929031
587.376	29.45359915
587.569	29.68461844
587.762	29.91497603
587.955	30.14898797
588.149	30.36312095
588.342	30.57876512
588.535	30.80520185
588.728	31.02902759
588.921	31.25593936
589.114	31.48304312
589.307	31.70292602
589.5	31.93417594
589.693	32.14394186
589.886	32.39021953
590.08	32.61945726
590.273	32.8231346
590.466	33.06391657
590.659	33.28442216
590.852	33.49383426
591.044	33.71146075
591.237	33.89380811
591.43	34.09015906
591.623	34.30562041
591.816	34.48679413
592.009	34.67790654
592.202	34.88257207
592.395	35.09104738
592.588	35.28225616
592.781	35.49459592
592.973	35.69008915
593.166	35.89009169
593.359	36.11246347
593.552	36.29937678
593.745	36.51450628
593.937	36.67820248
594.13	36.85039437
594.323	37.0318771
594.515	37.19516746
594.708	37.35911309
594.901	37.54677269
595.094	37.73770623
595.286	37.8960694
595.479	38.08761342
595.672	38.2574203
595.864	38.44014075
596.057	38.59655138
596.249	38.76590182
596.442	38.94692501
596.635	39.09581269
596.827	39.24310727
597.02	39.39016958
597.212	39.52547009
597.405	39.66199039
597.597	39.81151612
597.79	39.93797424
597.982	40.10546952
598.175	40.24617113
598.367	40.3686709
598.559	40.50720352
598.752	40.65416595
598.944	40.79452163
599.137	40.93101041
599.329	41.0649154
599.521	41.17291188
599.714	41.28167779
599.906	41.41579953
600.098	41.54098315
600.291	41.63925325
600.483	41.75320173
600.675	41.86864716
600.868	41.9690898
601.06	42.07325263
601.252	42.19974701
601.444	42.30289436
601.637	42.40815702
601.829	42.52079044
602.021	42.59486578
602.213	42.69165921
602.405	42.80367303
602.597	42.88429526
602.789	42.98801617
602.982	43.06754859
603.174	43.16308257
603.366	43.27257752
603.558	43.37111488
603.75	43.45942437
603.942	43.52405805
604.134	43.62633853
604.326	43.72277723
604.518	43.79928177
604.71	43.88410301
604.902	43.96603344
605.094	44.0605806
605.286	44.11376973
605.478	44.18697264
605.67	44.2661029
605.862	44.33112025
606.054	44.42162458
606.246	44.49751099
606.437	44.58862801
606.629	44.66832944
606.821	44.71750808
607.013	44.78930342
607.205	44.83512029
607.397	44.8781947
607.588	44.91449105
607.78	44.98015405
607.972	45.04607142
608.164	45.09768587
608.355	45.13665834
608.547	45.1762317
608.739	45.24680611
608.93	45.31120888
609.122	45.34960427
609.314	45.41484062
609.505	45.46741069
609.697	45.50814152
609.889	45.56926905
610.08	45.62663725
610.272	45.68711262
610.463	45.72998377
610.655	45.77791236
610.847	45.85572353
611.038	45.90816712
611.23	45.94639293
611.421	46.00584089
611.613	46.04265374
611.804	46.08308821
611.996	46.12885021
612.187	46.16405005
612.379	46.23444998
612.57	46.28024854
612.761	46.30456147
612.953	46.32346292
613.144	46.36314769
613.336	46.3883685
613.527	46.41469416
613.718	46.4426898
613.91	46.45574189
614.101	46.45076455
614.292	46.45477238
614.483	46.45934497
614.675	46.46307027
614.866	46.44993954
615.057	46.45898053
615.248	46.47247423
615.44	46.47753536
615.631	46.53343742
615.822	46.55887684
616.013	46.57145393
616.204	46.59151956
616.396	46.59002222
616.587	46.58876513
616.778	46.5928319
616.969	46.62626272
617.16	46.64786198
617.351	46.66319777
617.542	46.66882024
617.733	46.6709061
617.924	46.67821637
618.115	46.68583717
618.306	46.64824032
618.497	46.66216134
618.688	46.66592674
618.879	46.64326844
619.07	46.62924498
619.261	46.61305248
619.452	46.61813368
619.643	46.61296646
619.834	46.60881325
620.025	46.6140297
620.216	46.6173166
620.407	46.63416633
620.597	46.63759293
620.788	46.64537825
620.979	46.64549162
621.17	46.63938526
621.361	46.63345361
621.551	46.64192313
621.742	46.67499079
621.933	46.68875127
622.124	46.73974281
622.314	46.78978657
622.505	46.82116535
622.696	46.85519961
622.886	46.90805717
623.077	46.95111384
623.268	46.98889277
623.458	46.97877483
623.649	46.99757209
623.84	47.0255712
624.03	47.04258738
624.221	47.05351807
624.411	47.03432501
624.602	47.08935293
624.792	47.1196707
624.983	47.11506396
625.173	47.11639738
625.364	47.16591112
625.554	47.18795888
625.745	47.18671285
625.935	47.19042059
626.126	47.19707315
626.316	47.23231792
626.507	47.23710659
626.697	47.25865371
626.887	47.28309083
627.078	47.31438608
627.268	47.32897271
627.458	47.38591163
627.649	47.40269544
627.839	47.43526305
628.029	47.46946882
628.22	47.50826743
628.41	47.54316584
628.6	47.54774732
628.79	47.56176428
628.981	47.60919462
629.171	47.67530592
629.361	47.67597694
629.551	47.69206859
629.741	47.71760484
629.932	47.75746173
630.122	47.77148033
630.312	47.81263368
630.502	47.85629394
630.692	47.87281989
630.882	47.89863171
631.072	47.90780449
631.262	47.96039208
631.452	48.00607267
631.642	48.02794626
631.832	48.03164349
632.022	48.05059284
632.212	48.10726829
632.402	48.16430981
632.592	48.20398784
632.782	48.24349413
632.972	48.27477653
633.162	48.28528538
633.352	48.32625781
633.542	48.38353974
633.732	48.42391171
633.922	48.48585975
634.111	48.53485186
634.301	48.581532
634.491	48.62843051
634.681	48.70711628
634.871	48.763268
635.06	48.83455761
635.25	48.88176309
635.44	48.9234877
635.63	48.98321496
635.819	49.0439005
636.009	49.0914021
636.199	49.12184554
636.388	49.17029581
636.578	49.22419586
636.768	49.29287775
636.957	49.37183999
637.147	49.44859716
637.337	49.51755538
637.526	49.57703453
637.716	49.64680312
637.905	49.68470959
638.095	49.75389068
638.284	49.80167791
638.474	49.86153117
638.663	49.91586762
638.853	49.96570587
639.042	50.00259502
639.232	50.0701337
639.421	50.13710079
639.611	50.19401434
639.8	50.25576307
639.99	50.30331797
640.179	50.35319418
640.368	50.41079357
640.558	50.4632106
640.747	50.52215422
640.936	50.56599942
641.126	50.58841257
641.315	50.65093032
641.504	50.72330728
641.694	50.78969288
641.883	50.84988129
642.072	50.93292394
642.261	51.00334227
642.451	51.04109202
642.64	51.09252861
642.829	51.15382427
643.018	51.22569553
643.207	51.24873164
643.397	51.29146823
643.586	51.3560001
643.775	51.41063795
643.964	51.51866232
644.153	51.56353612
644.342	51.60926026
644.531	51.66506578
644.72	51.70805656
644.909	51.75711747
645.098	51.84543681
645.287	51.94287945
645.476	52.00265836
645.665	52.07255303
645.854	52.14359786
646.043	52.19110153
646.232	52.25033154
646.421	52.30557844
646.61	52.36234569
646.799	52.43945636
646.988	52.4747751
647.177	52.53778695
647.365	52.59779986
647.554	52.66519251
647.743	52.71604815
647.932	52.71505168
648.121	52.76024049
648.309	52.81295
648.498	52.88205036
648.687	52.95434436
648.876	53.02690488
649.064	53.09776458
649.253	53.10449715
649.442	53.13471375
649.63	53.18772466
649.819	53.24268684
650.008	53.29861932
650.196	53.2845076
650.385	53.3623364
650.574	53.41674666
650.762	53.46131713
650.951	53.52125599
651.139	53.61662879
651.328	53.67547428
651.516	53.72904216
651.705	53.81637491
651.893	53.92032173
652.082	54.00504598
652.27	54.07363076
652.459	54.14186728
652.647	54.16478017
652.836	54.19390216
653.024	54.24510216
653.213	54.3085333
653.401	54.37138617
653.589	54.39659968
653.778	54.46268352
653.966	54.52126249
654.154	54.62042451
654.343	54.64881636
654.531	54.69345922
654.719	54.73247526
654.908	54.79871436
655.096	54.84055716
655.284	54.90791011
655.472	54.97763007
655.661	55.04168729
655.849	55.05604697
656.037	55.09871152
656.225	55.15760345
656.413	55.17307799
656.601	55.25742555
656.79	55.34269872
656.978	55.3705119
657.166	55.43072618
657.354	55.47312576
657.542	55.52917198
657.73	55.58128473
657.918	55.59843846
658.106	55.65928771
658.294	55.70683156
658.482	55.71739335
658.67	55.78016831
658.858	55.82504455
659.046	55.88102216
659.234	55.88292541
659.422	55.87232965
659.61	55.88077425
659.798	55.93919458
659.986	55.96986702
660.173	56.01327455
660.361	56.07524841
660.549	56.10790133
660.737	56.15787469
660.925	56.23410919
661.113	56.2567074
661.3	56.29992972
661.488	56.33836365
661.676	56.35165974
661.864	56.40356531
662.051	56.4055529
662.239	56.46041165
662.427	56.54878196
662.614	56.56888866
662.802	56.59452602
662.99	56.62132114
663.177	56.66851272
663.365	56.75520815
663.553	56.80740919
663.74	56.8323704
663.928	56.92056549
664.115	56.96746512
664.303	57.02384484
664.49	57.05685603
664.678	57.06826736
664.866	57.07084984
665.053	57.11290957
665.24	57.15018558
665.428	57.1880097
665.615	57.21537443
665.803	57.2290056
665.99	57.27312191
666.178	57.28464851
666.365	57.31471375
666.552	57.35622255
666.74	57.40090266
666.927	57.38500615
667.114	57.40913477
667.302	57.40954351
667.489	57.44781828
667.676	57.48739476
667.864	57.51197767
668.051	57.55692482
668.238	57.58524133
668.425	57.62008806
668.613	57.67095308
668.8	57.69603933
668.987	57.72246151
669.174	57.74809296
669.361	57.8065375
669.548	57.87062413
669.736	57.92724869
669.923	57.97507898
670.11	58.04223777
670.297	58.04977518
670.484	58.07421753
670.671	58.10257834
670.858	58.15672823
671.045	58.22274572
671.232	58.28305308
671.419	58.30573491
671.606	58.35111855
671.793	58.32777045
671.98	58.30684213
672.167	58.31886333
672.354	58.36106225
672.541	58.36623635
672.728	58.39625193
672.915	58.41730124
673.101	58.4638367
673.288	58.45328949
673.475	58.47409242
673.662	58.51935351
673.849	58.55821882
674.035	58.57318533
674.222	58.59928978
674.409	58.64572797
674.596	58.63995941
674.783	58.65816142
674.969	58.62202383
675.156	58.62715768
675.343	58.62730728
675.529	58.63267523
675.716	58.68348368
675.903	58.69571906
676.089	58.69325746
676.276	58.70215729
676.462	58.71370977
676.649	58.74556301
676.836	58.73401408
677.022	58.72860945
677.209	58.7593039
677.395	58.75079016
677.582	58.7329207
677.768	58.71877413
677.955	58.69076762
678.141	58.7207651
678.328	58.70764304
678.514	58.6984708
678.701	58.75273315
678.887	58.78105177
679.073	58.79812049
679.26	58.83311378
679.446	58.87140877
679.632	58.88210487
679.819	58.91024355
680.005	58.9243287
680.191	58.93144704
680.378	58.97129102
680.564	58.97523652
680.75	59.01422067
680.936	59.03821277
681.123	59.04270059
681.309	59.10407691
681.495	59.13407877
681.681	59.16480479
681.867	59.20012689
682.054	59.23818705
682.24	59.24736554
682.426	59.27972605
682.612	59.24752423
682.798	59.29833694
682.984	59.29168749
683.17	59.27450592
683.356	59.25475898
683.542	59.28868485
683.728	59.28229028
683.914	59.29503301
684.1	59.31985317
684.286	59.30033075
684.472	59.29764593
684.658	59.2967666
684.844	59.34291254
685.03	59.3866881
685.216	59.38320834
685.402	59.3720529
685.588	59.39919904
685.774	59.3863763
685.96	59.38388523
686.145	59.38330872
686.331	59.39162769
686.517	59.42578379
686.703	59.42353555
686.889	59.45724273
687.074	59.50462794
687.26	59.54427961
687.446	59.53782531
687.631	59.56265822
687.817	59.62079676
688.003	59.65875845
688.189	59.68344668
688.374	59.69304893
688.56	59.73779416
688.745	59.71504549
688.931	59.70121803
689.117	59.69442807
689.302	59.68976452
689.488	59.67142622
689.673	59.68358895
689.859	59.67254236
690.044	59.75403588
690.23	59.81152114
690.415	59.84980829
690.601	59.85475848
690.786	59.87643747
690.972	59.87140039
691.157	59.90140931
691.343	59.93593348
691.528	59.93438214
691.713	59.95453789
691.899	59.93785468
692.084	59.96329149
692.269	60.00312581
692.455	59.98888115
692.64	59.99979526
692.825	60.01931592
693.011	60.04198199
693.196	60.05577438
693.381	60.07370187
693.566	60.13537891
693.752	60.15063978
693.937	60.2056239
694.122	60.22313842
694.307	60.21462541
694.492	60.20902757
694.678	60.21490712
694.863	60.21052751
695.048	60.16176182
695.233	60.12334063
695.418	60.18455905
695.603	60.12997725
695.788	60.08974938
695.973	60.08442214
696.158	60.08959206
696.343	60.09412776
696.528	60.10358913
696.713	60.09978976
696.898	60.09034482
697.083	60.11375017
697.268	60.13160363
697.453	60.12951638
697.638	60.17964
697.823	60.10758873
698.008	60.08590287
698.192	60.08862249
698.377	60.10342346
698.562	60.11887993
698.747	60.15666304
698.932	60.17640408
699.117	60.21179443
699.301	60.21555769
699.486	60.23531768
699.671	60.27201143
699.856	60.27831712
700.04	60.27621256
700.225	60.31003639
700.41	60.2906198
700.594	60.32280716
700.779	60.35280447
700.964	60.36714151
701.148	60.37318011
701.333	60.38250966
701.517	60.3902413
701.702	60.38490485
701.887	60.44120534
702.071	60.46570176
702.256	60.51720716
702.44	60.52749422
702.625	60.52771203
702.809	60.53974072
702.994	60.54288993
703.178	60.54674174
703.362	60.5489468
703.547	60.58071097
703.731	60.60091773
703.916	60.62094619
704.1	60.63897058
704.284	60.64199684
704.469	60.63771388
704.653	60.64668935
704.837	60.64671985
705.022	60.67304655
705.206	60.69217568
705.39	60.64867056
705.575	60.74146437
705.759	60.69236877
705.943	60.66884587
706.127	60.66699253
706.311	60.72516753
706.496	60.75715829
706.68	60.81701576
706.864	60.8391662
707.048	60.86433994
707.232	60.89143618
707.416	60.90984433
707.6	60.96852016
707.785	60.98273479
707.969	61.00018777
708.153	61.08855254
708.337	61.14466264
708.521	61.16052673
708.705	61.18991338
708.889	61.17823968
709.073	61.15876791
709.257	61.18407846
709.441	61.19141114
709.624	61.19766091
709.808	61.21079846
709.992	61.24582935
710.176	61.19648137
710.36	61.12233433
710.544	61.11923189
710.728	61.14239427
710.912	61.14081445
711.095	61.1605071
711.279	61.16200664
711.463	61.15904021
711.647	61.16527141
711.83	61.21367883
712.014	61.1960718
712.198	61.17311021
712.382	61.20071252
712.565	61.17481862
712.749	61.17973629
712.933	61.2017657
713.116	61.27498635
713.3	61.23277901
713.483	61.29220603
713.667	61.32755338
713.851	61.27982717
714.034	61.27553741
714.218	61.36917407
714.401	61.40997625
714.585	61.37281342
714.768	61.33414165
714.952	61.30193628
715.135	61.34468858
715.319	61.29096149
715.502	61.31375077
715.686	61.26387736
715.869	61.29322392
716.052	61.27988238
716.236	61.27155604
716.419	61.28861285
716.602	61.37036547
716.786	61.40417889
716.969	61.33599003
717.152	61.36822546
717.336	61.36097703
717.519	61.35718492
717.702	61.38870964
717.885	61.3773755
718.069	61.36596966
718.252	61.29163215
718.435	61.32391129
718.618	61.39549558
718.801	61.45970558
718.985	61.41626355
719.168	61.48228428
719.351	61.42099484
719.534	61.45226753
719.717	61.48123222
719.9	61.49036514
720.083	61.45668474
720.266	61.48687579
720.449	61.41142446
720.632	61.33767579
720.815	61.37523772
720.998	61.3561823
721.181	61.39625229
721.364	61.44137147
721.547	61.45313593
721.73	61.5548666
721.913	61.5582844
722.096	61.58010244
722.279	61.59924993
722.461	61.55831253
722.644	61.57293609
722.827	61.63215367
723.01	61.64750477
723.193	61.7568939
723.376	61.78011922
723.558	61.76459226
723.741	61.73926877
723.924	61.77193177
724.107	61.78871728
724.289	61.84471381
724.472	61.88637283
724.655	61.87449015
724.837	61.84650157
725.02	61.79664609
725.203	61.72794581
725.385	61.71722807
725.568	61.68667519
725.75	61.72066854
725.933	61.6973955
726.115	61.71930887
726.298	61.77284695
726.481	61.74672676
726.663	61.69531471
726.845	61.6614016
727.028	61.63318803
727.21	61.56615894
727.393	61.51460791
727.575	61.54696467
727.758	61.53433446
727.94	61.50210508
728.122	61.47647309
728.305	61.49435328
728.487	61.49860983
728.67	61.54863329
728.852	61.56738854
729.034	61.59388117
729.216	61.60917951
729.399	61.64182994
729.581	61.60327784
729.763	61.67953765
729.945	61.70995814
730.128	61.73469445
730.31	61.73628594
730.492	61.72412414
730.674	61.65894821
730.856	61.63226186
731.039	61.65154904
731.221	61.70167447
731.403	61.72300831
731.585	61.75636122
731.767	61.80799038
731.949	61.78835112
732.131	61.83084184
732.313	61.79448904
732.495	61.76874585
732.677	61.79945992
732.859	61.81694089
733.041	61.83159054
733.223	61.83173409
733.405	61.8212305
733.587	61.82293529
733.769	61.77648517
733.951	61.73796764
734.132	61.75136364
734.314	61.8408777
734.496	61.97474074
734.678	62.03699427
734.86	62.11375454
735.042	62.1185526
735.223	62.10524726
735.405	62.07933079
735.587	62.08906769
735.769	62.14874965
735.95	62.17912896
736.132	62.23585239
736.314	62.30088618
736.495	62.2594608
736.677	62.31065735
736.859	62.30409578
737.04	62.24365613
737.222	62.25021968
737.403	62.23116056
737.585	62.19651203
737.767	62.25460667
737.948	62.26491723
738.13	62.1950439
738.311	62.21657689
738.493	62.28659092
738.674	62.26622535
738.856	62.29163285
739.037	62.37237353
739.219	62.41499489
739.4	62.4296629
739.581	62.40110823
739.763	62.30992198
739.944	62.3685944
740.125	62.39991057
740.307	62.40112003
740.488	62.3726814
740.669	62.38777483
740.851	62.41677321
741.032	62.53366918
741.213	62.48039564
741.395	62.58447288
741.576	62.52973249
741.757	62.52757944
741.938	62.54850269
742.119	62.56577633
742.301	62.54427676
742.482	62.48719276
742.663	62.46049198
742.844	62.49281099
743.025	62.50888628
743.206	62.47649858
743.387	62.51650944
743.568	62.59387758
743.749	62.56553061
743.93	62.51498109
744.111	62.54522097
744.292	62.536098
744.473	62.49960517
744.654	62.50403785
744.835	62.36699377
745.016	62.47086622
745.197	62.38104637
745.378	62.37844356
745.559	62.45653329
745.74	62.50533239
745.921	62.37886173
746.102	62.25665865
746.282	62.26706201
746.463	62.28386173
746.644	62.23110645
746.825	62.1520862
747.006	62.22647436
747.186	62.26417947
747.367	62.28279329
747.548	62.27568508
747.728	62.22315045
747.909	62.24839477
748.09	62.23139513
748.27	62.21094155
748.451	62.22399659
748.632	62.33094771
748.812	62.38460544
748.993	62.435165
749.173	62.43349202
749.354	62.33080803
749.535	62.34155944
749.715	62.42307401
749.896	62.53187884
750.076	62.57337035
750.257	62.56570452
750.437	62.44529781
750.618	62.50100605
750.798	62.4398717
750.978	62.30114955
751.159	62.20162105
751.339	62.2374915
751.52	62.29255015
751.7	62.32347184
751.88	62.34486651
752.061	62.45690209
752.241	62.4725714
752.421	62.40456062
752.601	62.33841582
752.782	62.33660178
752.962	62.26346909
753.142	62.34093332
753.322	62.30958371
753.503	62.23007718
753.683	62.28068097
753.863	62.29806727
754.043	62.34529106
754.223	62.44072446
754.403	62.40992602
754.583	62.43163225
754.764	62.51439578
754.944	62.55732635
755.124	62.55382859
755.304	62.58445518
755.484	62.5489885
755.664	62.57406014
755.844	62.49655302
756.024	62.47285284
756.204	62.40160346
756.384	62.43251562
756.564	62.33497189
756.743	62.53126795
756.923	62.52912516
757.103	62.49388486
757.283	62.59808708
757.463	62.50657671
757.643	62.53123921
757.823	62.45031827
758.002	62.49372981
758.182	62.52307457
758.362	62.53619619
758.542	62.49935655
758.721	62.60350759
758.901	62.62252409
759.081	62.56720802
759.261	62.52516804
759.44	62.56147205
759.62	62.62432637
759.8	62.70100801
759.979	62.80335706
760.159	62.81208355
760.338	62.95792375
760.518	62.87279501
760.698	62.83226554
760.877	62.94183686
761.057	62.91206708
761.236	62.89596771
761.416	62.85582623
761.595	62.90353614
761.775	62.9245484
761.954	62.93020146
762.133	63.0092453
762.313	63.05961304
762.492	63.04745188
762.672	62.94649507
762.851	62.92577261
763.03	62.9594267
763.21	63.03236643
763.389	63.07385737
763.568	63.02054401
763.748	63.00290265
763.927	62.97630327
764.106	62.91759465
764.286	62.92365682
764.465	62.92898712
764.644	62.91152671
764.823	62.82865615
765.002	62.92034364
765.182	62.97085906
765.361	62.98422175
765.54	62.92685587
765.719	62.8789157
765.898	62.84861899
766.077	62.83441814
766.256	62.76019725
766.435	62.86752467
766.614	63.00488132
766.793	62.98561697
766.972	62.85873799
767.151	62.69013198
767.33	62.68965044
767.509	62.70420999
767.688	62.63899359
767.867	62.71962572
768.046	62.74080143
768.225	62.72411936
768.404	62.67599161
768.583	62.86233628
768.762	62.71941167
768.94	62.75318064
769.119	62.75125024
769.298	62.86547233
769.477	62.91444763
769.656	62.95853845
769.834	62.9461212
770.013	63.03658424
770.192	63.15530022
770.37	63.0156413
770.549	62.96308677
770.728	63.0351218
770.906	63.18107154
771.085	63.26700133
771.264	63.29097979
771.442	63.42340272
771.621	63.35250883
771.799	63.38710331
771.978	63.38831948
772.157	63.3778383
772.335	63.34595544
772.514	63.4585562
772.692	63.24337409
772.871	63.11873344
773.049	63.07935422
773.228	63.20418977
773.406	63.06820269
773.584	63.24323326
773.763	63.23969474
773.941	63.09793557
774.119	63.35235153
774.298	63.56465462
774.476	63.68474158
774.655	63.66773
774.833	63.53220106
775.011	63.45751678
775.189	63.46360493
775.368	63.49594076
775.546	63.55743121
775.724	63.60958274
775.902	63.6044586
776.08	63.6122625
776.259	63.5326943
776.437	63.64930651
776.615	63.72891173
776.793	63.51145972
776.971	63.42970207
777.149	63.37332221
777.327	63.19282926
777.505	63.2934615
777.683	63.34300575
777.861	63.01133582
778.04	63.03909552
778.218	62.88364921
778.395	62.94065167
778.573	63.00841637
778.751	63.26824827
778.929	63.13841816
779.107	63.07094896
779.285	62.87648729
779.463	62.97233569
779.641	62.96230547
779.819	62.80091432
779.997	62.790599
780.174	62.91125546
780.352	62.87962096
780.53	63.16991405
780.708	63.19249079
780.886	63.30686363
781.063	63.33736047
781.241	63.18638254
781.419	63.06999266
781.596	63.16416697
781.774	63.13565693
781.952	63.02079048
782.129	62.93608264
782.307	62.99322684
782.485	62.71084044
782.662	62.74788167
782.84	62.71850188
783.017	62.80668316
783.195	62.8741254
783.372	62.73386049
783.55	62.97257602
783.727	63.19088358
783.905	63.02330087
784.082	63.04149927
784.26	62.93518454
784.437	62.97661573
784.615	63.04451232
784.792	62.96873758
784.969	63.00737964
785.147	62.96042315
785.324	63.00657725
785.501	62.87057224
785.679	62.77009618
785.856	62.89015263
786.033	62.94779677
786.211	63.00894434
786.388	62.92312391
786.565	63.10891199
786.742	63.1913833
786.92	63.11489774
787.097	63.37145279
787.274	63.29883701
787.451	63.28162691
787.628	63.21851523
787.805	63.30139079
787.982	63.35859299
788.16	63.29151885
788.337	63.06587581
788.514	63.11042861
788.691	63.18364233
788.868	63.03670054
789.045	62.96584412
789.222	63.04996777
789.399	63.30552986
789.576	63.25487675
789.753	63.12535343
789.93	62.98478365
790.106	63.30090582
790.283	63.26040156
790.46	63.21542182
790.637	63.04295042
790.814	62.97827977
790.991	62.8221367
791.168	62.81418961
791.344	62.98216759
791.521	62.98101819
791.698	63.02216264
791.875	62.95876166
792.051	62.92368897
792.228	63.00702418
792.405	62.75710946
792.581	62.97247146
792.758	62.8360452
792.935	62.93219916
793.111	62.77826499
793.288	62.63888322
793.465	62.56731134
793.641	62.84494183
793.818	62.65567583
793.994	62.57568017
794.171	62.21608096
794.347	62.23520711
794.524	62.18718939
794.7	62.19456417
794.877	61.87600478
795.053	61.87457717
795.23	62.07272813
795.406	61.89438227
795.583	61.98165409
795.759	61.95873112
795.935	61.94630952
796.112	62.30946786
796.288	62.41692479
796.464	62.55277776
796.641	62.42297354
796.817	62.47985292
796.993	62.95622804
797.169	63.01471547
797.346	62.97976797
797.522	63.14869961
797.698	63.13793563
797.874	63.37684149
798.051	63.40115022
798.227	63.42005716
798.403	63.57975143
798.579	63.7535361
798.755	63.70670202
798.931	63.40242427
799.107	63.39848998
799.283	63.49172037
799.459	63.73389369
799.635	63.76918505
799.811	63.31726466
799.987	63.18274512
800.163	63.25404356
800.339	62.90745126
800.515	62.70944547
800.691	62.34506512
800.867	62.76474884
801.043	62.65588674
801.219	62.36626175
801.395	62.30022467
801.571	62.16024518
801.746	61.90644879
801.922	61.6405885
802.098	61.42806561
802.274	61.48499687
802.45	61.67625391
802.625	61.82633909
802.801	62.01181155
802.977	61.99661443
803.152	61.97123081
803.328	61.714745
803.504	61.66555581
803.679	61.59334846
803.855	62.13961769
804.031	62.23051846
804.206	62.3769819
804.382	62.33119273
804.557	61.62388681
804.733	61.57944102
804.909	61.61593981
805.084	61.66963785
805.26	61.9102257
805.435	62.11643307
805.61	62.18009358
805.786	62.31389711
805.961	62.17303213
806.137	61.74195126
806.312	61.68786766
806.488	61.45865648
806.663	61.16457617
806.838	60.969597
807.014	61.0873034
807.189	61.30238491
807.364	61.37566873
807.54	60.46583291
807.715	60.82899823
807.89	60.98176324
808.065	60.91392126
808.241	61.03871139
808.416	61.32942434
808.591	61.22390231
808.766	61.05499496
808.941	60.76824966
809.116	60.88031344
809.291	60.93375981
809.467	60.47354881
809.642	60.34898741
809.817	60.20946655
809.992	59.90935963
810.167	59.81937711
810.342	60.02538775
810.517	60.23702698
810.692	60.55022716
810.867	60.64416864
811.042	60.73920541
811.217	61.15747732
811.392	61.43824146
811.567	61.19823861
811.741	61.14839449
811.916	61.72264094
812.091	61.40548369
812.266	61.00362757
812.441	61.25477809
812.616	62.00805147
812.79	61.95192799
812.965	62.08243957
813.14	62.3141877
813.315	62.26999259
813.489	62.65748352
813.664	63.04739165
813.839	63.39407688
814.013	63.40790511
814.188	63.74068666
814.363	63.49171725
814.537	63.17649119
814.712	63.03827602
814.887	62.7958516
815.061	62.20885307
815.236	62.10149246
815.41	62.17270095
815.585	62.29162938
815.759	62.31946527
815.934	62.56241449
816.108	62.51337514
816.283	62.13480077
816.457	62.31764982
816.631	62.49489543
816.806	62.6577745
816.98	62.8816297
817.155	62.91332704
817.329	62.72309506
817.503	62.72077966
817.678	62.81785062
817.852	62.33697413
818.026	62.0817859
818.201	62.33622558
818.375	62.47702222
818.549	62.484582
818.723	62.41227321
818.897	62.51967946
819.072	62.5265983
819.246	62.34612071
819.42	62.36295562
819.594	62.59784583
819.768	62.60746685
819.942	62.63171416
820.116	62.62869234
820.29	62.72203875
820.465	62.75136812
820.639	62.65198095
820.813	62.64417286
820.987	62.64356793
821.161	62.60915608
821.335	62.43118128
821.509	62.48450132
821.682	62.49035923
821.856	62.46810481
822.03	62.39856034
822.204	62.33017079
822.378	62.49604704
822.552	62.44408861
822.726	62.30820046
822.9	62.18272966
823.073	62.2262157
823.247	61.92653669
823.421	61.78432987
823.595	61.61080927
823.768	61.51218343
823.942	61.31374595
824.116	61.08774532
824.289	61.09553813
824.463	60.93059967
824.637	61.12219419
824.81	61.14465643
824.984	61.33638868
825.158	61.43046057
825.331	61.44697825
825.505	61.42551751
825.678	61.37105907
825.852	61.0799658
826.025	61.01943486
826.199	60.87367225
826.372	61.01777976
826.546	61.08264149
826.719	61.18533519
826.893	61.22996622
827.066	61.06747417
827.24	61.53699328
827.413	61.48659769
827.586	60.79346899
827.76	60.86461818
827.933	60.78383416
828.106	60.94774684
828.28	59.85655341
828.453	59.25292473
828.626	59.36589337
828.799	59.05561651
828.973	58.9496874
829.146	58.99831724
829.319	59.59153066
829.492	61.22324753
829.665	60.78449954
829.839	60.86059659
830.012	61.07711644
830.185	61.45105315
830.358	60.86959909
830.531	61.24665187
830.704	61.48484079
830.877	60.62710899
831.05	60.78110015
831.223	61.50281716
831.396	61.82885079
831.569	62.03536604
831.742	62.42242089
831.915	63.23983405
832.088	64.00053459
832.261	63.54263555
832.434	63.78329342
832.607	63.83641286
832.779	63.81609786
832.952	63.96398485
833.125	63.65602209
833.298	63.86252565
833.471	64.07656285
833.643	63.72002749
833.816	63.33372905
833.989	63.58669231
834.162	64.06597855
834.334	64.71804556
834.507	66.04482396
834.68	65.86634272
834.852	66.09765952
835.025	65.7825862
835.198	65.0084317
835.37	63.66986371
835.543	63.61269353
835.715	62.23754594
835.888	62.23627154
836.061	61.61208787
836.233	63.39885402
836.406	62.63178072
836.578	61.23946671
836.751	60.50058114
836.923	59.87941958
837.095	59.83104851
837.268	59.88618706
837.44	60.64656848
837.613	60.13200606
837.785	58.87170751
837.957	57.57147345
838.13	56.6352413
838.302	57.21928755
838.474	55.2467294
838.647	54.08550409
838.819	54.25884694
838.991	54.97772242
839.163	52.7912077
839.336	51.88660261
839.508	52.35906058
839.68	54.78050898
839.852	53.90397005
840.024	52.6172692
840.196	51.24455114
840.368	51.07863373
840.541	51.39582621
840.713	50.73044465
840.885	51.29603866
841.057	49.39448307
841.229	49.15728125
841.401	49.87112364
841.573	48.93572795
841.745	49.55235671
841.917	49.29546063
842.089	48.62725359
842.261	50.90098545
842.432	55.47400322
842.604	53.86575632
842.776	53.15993717
842.948	55.86883676
843.12	54.74630126
843.292	51.59622528
843.464	47.61978682
843.635	48.48469123
843.807	50.58544464
843.979	49.74058317
844.151	48.46648794
844.322	49.05115062
844.494	49.48762673
844.666	53.05393826
844.837	51.169464
845.009	49.45391731
845.181	50.87269554
845.352	47.509053
845.524	45.32470561
845.695	47.29455529
845.867	44.88600579
846.039	43.79672131
846.21	46.25383282
846.382	47.79484991
846.553	47.20475192
846.725	50.24499796
846.896	46.0110421
847.068	47.63768322
847.239	46.70781893
847.41	45.1663906
847.582	43.61322019
847.753	45.80524345
847.925	48.24198552
848.096	51.48478099
848.267	46.79041562
848.439	50.51490092
848.61	53.61785435
848.781	52.55297847
848.952	47.52501316
849.124	43.88166331
849.295	48.46062759
849.466	49.03965855
849.637	39.35548658
849.808	35.96036303
849.98	43.41540757
850.151	42.5664055
850.322	38.86901212
850.493	31.1180374
850.664	33.25991189
850.835	41.69659835
851.006	46.32950991
851.177	49.16428414
851.348	54.34598262
851.519	58.28801392
851.69	49.43958754
851.861	48.30814347
852.032	46.58853562
852.203	37.13343942
852.374	40.64005506
852.545	39.76285513
852.716	53.0329103
852.887	55.25957833
853.057	53.16640467
853.228	51.96492711
853.399	60.89005236
853.57	50.67059541
853.741	45.10788293
853.911	51.78457616
854.082	64.12673177
854.253	59.1483337
854.424	46.66036547
854.594	40.5342271
854.765	44.42136499
854.936	38.44354018
855.106	27.5902089
855.277	30.24201961
855.447	34.96424923
855.618	37.32840549
855.789	44.25287356
855.959	41.92389827
856.13	50.57688841
856.3	41.76234737
856.471	38.0847308
856.641	37.24637681
856.812	40.04788674
856.982	34.93651818
857.153	33.00349243
857.323	37.61993915
857.493	36.9724323
857.664	30.57405281
857.834	28.62630966
858.004	39.42690058
858.175	42.75264461
858.345	38.30359063
858.515	36.00043076
858.686	37.83647035
858.856	36.48240121
859.026	37.69090495
859.196	35.3896751
859.367	35.83349891
859.537	40.70010449
859.707	42.0730442
859.877	36.4372919
860.047	35.089141
860.217	43.31544825
860.387	43.98335822
860.558	41.78623414
860.728	42.12934716
860.898	40.83013533
861.068	35.56160516
861.238	39.23603681
861.408	38.89118315
861.578	36.82812832
861.748	32.13901442
861.918	33.40723454
862.088	40.69095756
862.257	48.1173063
862.427	53.33102012
862.597	52.0004763
862.767	53.34914876
862.937	71.87033164
863.107	64.34647009
863.277	59.65214666
863.446	63.35818577
863.616	65.17883106
863.786	58.53761623
863.956	62.06477733
864.125	47.25949186
864.295	55.65272497
864.465	50.65075922
864.634	54.77194833
864.804	56.44209491
864.974	69.29406153
865.143	71.29792032
865.313	81.61959932
865.482	73.06294024
865.652	74.61957756
865.822	78.6090969
865.991	69.10352188
866.161	63.13131313
866.33	64.43066516
866.5	53.31638293
866.669	48.96786301
866.838	45.71096556
867.008	53.2688459
867.177	53.52374699
867.347	55.40728707
867.516	55.02051653
867.685	71.63770531
867.855	73.9688716
868.024	87.70212766
868.193	75.5540721
868.363	72.25503356
868.532	67.86782703
868.701	63.99744572
868.87	56.98939353
869.04	68.69313482
869.209	73.88675907
869.378	56.75711625
869.547	62.44695898
869.716	64.02355519
869.885	64.0518761
870.055	44.64836089
870.224	46.55172414
870.393	43.21375187
870.562	33.32825358
870.731	19.80869565
870.9	16.68921204
871.069	12.93381038
871.238	14.34382738
871.407	7.28189086
871.576	6.15565247
871.745	14.1509434
871.914	15.64255038
872.083	-6.77933916
872.251	-4.47676615
872.42	1.26559715
872.589	0.0506928
872.758	-14.1300813
872.927	-4.53242565
873.096	5.45657016
873.264	11.09979633
873.433	14.38009559
873.602	24.96908236
873.771	28.87253679
873.939	39.91596639
874.108	50.022041
874.277	57.75588048
874.445	56.81215582
874.614	53.7653737
874.783	49.03713893
874.951	47.28292971
875.12	46.5000902
875.288	50.0711364
875.457	49.0662286
875.625	50.16770082
875.794	49.90432148
875.962	48.33256846
876.131	43.19821895
876.299	45.41749962
876.468	48.15464389
876.636	53.1687309
876.805	55.81191122
876.973	53.36108057
877.141	63.01077107
877.31	63.44636562
877.478	60.74996036
877.647	58.11651121
877.815	62.54853238
877.983	65.21972133
878.151	67.20073053
878.32	70.14536262
878.488	75.12587299
878.656	76.1716693
878.824	67.73591612
878.992	65.13973718
879.161	74.79046377
879.329	82.86943783
879.497	86.82941531
879.665	86.85918235
879.833	87.98648334
880.001	86.24393624
880.169	70.48834628
880.337	63.19010742
880.505	62.67077418
880.673	57.5006108
880.841	55.93538693
881.009	62.21438646
881.177	67.44284505
881.345	54.80799251
881.513	44.13871703
881.681	45.48922056
881.849	36.65318504
882.017	23.98045163
882.185	20.18524991
882.352	13.345484
882.52	22.88270378
882.688	4.34691306
882.856	-41.35583185
883.024	-116.09865471
883.191	-112.64118158
883.359	-70.93862816
883.527	-123.44365642
883.694	-94.03261675
883.862	-49.60758666
884.03	-61.57133465
884.197	-79.84878369
884.365	-131.25552608
884.533	-90.83496412
884.7	-98.44934528
884.868	-107.39776952
885.035	-78.86446886
885.203	-71.34387352
885.37	-96.78284182
885.538	-79.75083674
885.705	-76.53301887
885.873	-17.27523252
886.04	-17.67537827
886.208	-13.90977444
886.375	-5.43683218
886.542	30.65955864
886.71	55.02392344
886.877	39.31092437
